DTS Sentinel unit serial number:	SN409017Multiplexer serial number:	ORYXHardware model number:	OX4Software version number:	ORYX F/W v1,02 Oryx Data Collector v3.7.1.3data status	okinstallation	speulderbos2017nov21differential loss correction	single-endedforward channel	channel 1reverse channel	N/Adate	2018/01/07time	20:22:19forward acquisition time	30,00reverse acquisition time	0,00gamma	498,7988k internal	0,2786k external	0,2786temperature offset calibration	1,0000default loss term (dB/km)	0,3730temperature slope calibration	0,7000multiplexer offset coefficient	1,0000multiplexer slope coefficient	1,0000fibre end	0,00T internal ref (°C)	15,34T ext. ref 1 (°C)	3,09T ext. ref 2 (°C)	1258,77length (m)	temperature (°C)	Stokes	anti-Stokes-747,000	-200,000	-0,034	-0,143
-745,985	20,132	-0,356	-0,240
-744,971	-63,000	-0,040	0,014
-743,956	93,797	-0,570	-0,540
-742,942	124,800	0,216	0,228
-741,927	-30,791	-0,478	-0,225
-740,912	-125,085	-0,024	-0,003
-739,898	299,481	-0,156	-0,241
-738,883	-200,000	0,019	0,508
-737,869	-92,535	-0,544	-0,127
-736,854	-155,873	0,469	0,025
-735,839	-100,133	-0,796	-0,164
-734,825	-76,875	-0,243	0,070
-733,810	700,000	-0,155	-0,529
-732,796	598,048	-0,227	0,471
-731,781	95,827	0,211	-0,201
-730,766	77,336	0,167	-0,148
-729,752	700,000	0,012	0,040
-728,737	-87,720	-0,562	0,141
-727,723	607,642	-0,264	0,553
-726,708	25,017	0,142	-0,098
-725,694	233,708	0,098	-0,135
-724,679	700,000	-0,176	-0,519
-723,664	149,083	-0,417	0,472
-722,650	612,053	0,159	-0,333
-721,635	72,670	-0,281	-0,245
-720,621	-159,780	-0,343	0,016
-719,606	700,000	-0,242	-0,553
-718,591	-139,371	-0,437	0,039
-717,577	-150,911	0,624	0,039
-716,562	-200,000	0,018	-0,313
-715,548	101,195	-0,335	0,326
-714,533	95,345	0,304	-0,289
-713,518	241,725	-0,188	-0,262
-712,504	36,556	0,218	-0,160
-711,489	700,000	-0,117	0,315
-710,475	131,832	-0,169	-0,181
-709,460	386,510	0,232	0,402
-708,445	-36,433	0,177	0,079
-707,431	-95,550	-0,150	0,033
-706,416	-200,000	0,019	-0,183
-705,402	-85,389	-0,279	-0,072
-704,387	203,979	0,153	0,198
-703,372	-200,000	0,003	-0,571
-702,358	700,000	0,285	0,647
-701,343	234,242	0,162	-0,223
-700,329	-200,000	-0,007	-0,224
-699,314	700,000	0,142	0,332
-698,299	-39,922	0,538	0,233
-697,285	156,515	-0,112	-0,129
-696,270	-200,000	-0,031	0,120
-695,256	-95,397	-0,143	-0,032
-694,241	-144,445	-0,460	-0,035
-693,226	-39,461	0,202	-0,088
-692,212	95,641	-0,257	0,245
-691,197	415,834	-0,365	-0,652
-690,183	-200,000	0,023	-0,180
-689,168	16,150	-0,608	0,399
-688,154	4,589	0,362	0,221
-687,139	19,226	-0,115	0,077
-686,124	700,000	-0,080	0,190
-685,110	17,434	-0,233	-0,154
-684,095	271,513	0,043	-0,063
-683,081	1,008	-0,191	-0,114
-682,066	-119,957	-0,260	-0,037
-681,051	-80,659	-0,276	-0,076
-680,037	402,456	-0,373	-0,656
-679,022	14,202	0,400	0,260
-678,008	93,752	-0,414	0,391
-676,993	2,212	0,499	-0,300
-675,978	-73,179	-0,128	-0,039
-674,964	-87,041	0,241	0,061
-673,949	-91,090	-0,364	-0,086
-672,935	-200,000	0,105	-0,790
-671,920	-200,000	0,003	-0,707
-670,905	339,035	-0,136	0,222
-669,891	79,434	0,263	0,235
-668,876	-91,411	-0,422	-0,100
-667,862	-200,000	0,017	0,290
-666,847	-200,000	-0,040	-0,247
-665,832	-45,325	0,407	0,168
-664,818	202,605	-0,326	-0,421
-663,803	626,509	-0,080	0,170
-662,789	-200,000	-0,021	0,117
-661,774	-104,781	0,311	0,059
-660,759	51,169	-0,256	0,202
-659,745	-61,309	-0,479	-0,167
-658,730	-179,194	0,439	0,008
-657,716	-85,261	-0,207	0,053
-656,701	-102,041	0,341	0,068
-655,686	199,031	-0,041	-0,052
-654,672	106,235	-0,494	0,488
-653,657	-91,183	0,374	0,089
-652,643	-200,000	-0,007	0,484
-651,628	700,000	-0,198	0,540
-650,613	306,915	0,133	-0,207
-649,599	-126,864	0,421	-0,051
-648,584	304,993	-0,289	0,448
-647,570	211,068	0,141	-0,185
-646,555	662,101	0,129	0,278
-645,541	243,225	-0,071	-0,100
-644,526	-200,000	-0,060	0,342
-643,511	215,156	0,174	-0,230
-642,497	-200,000	0,039	-0,402
-641,482	189,740	0,277	0,346
-640,468	107,564	0,052	-0,051
-639,453	8,363	0,122	-0,076
-638,438	-200,000	-0,062	-0,291
-637,424	19,824	0,469	0,314
-636,409	476,195	-0,197	0,372
-635,395	-14,100	-0,361	0,193
-634,380	42,837	-0,080	-0,061
-633,365	700,000	0,217	-0,584
-632,351	72,731	0,195	0,169
-631,336	23,242	-0,128	0,087
-630,322	27,365	0,207	-0,144
-629,307	-73,719	0,976	0,294
-628,292	700,000	0,099	0,268
-627,278	-1,852	-0,107	-0,063
-626,263	-200,000	0,037	-0,366
-625,249	-200,000	-0,041	-0,276
-624,234	-19,375	0,154	0,079
-623,219	-102,453	-0,725	0,143
-622,205	270,007	0,199	-0,292
-621,190	-200,000	-0,032	-0,287
-620,176	-200,000	-0,111	-0,614
-619,161	78,180	0,586	-0,520
-618,146	429,740	0,165	-0,298
-617,132	-135,105	0,173	0,017
-616,117	159,188	0,326	-0,378
-615,103	-96,544	0,074	0,016
-614,088	-19,926	-0,464	-0,237
-613,073	148,459	0,309	-0,347
-612,059	-55,426	-0,280	0,104
-611,044	371,573	-0,449	0,760
-610,030	42,774	0,105	0,079
-609,015	-118,497	0,649	-0,095
-608,001	167,003	0,511	-0,604
-606,986	-131,962	0,442	0,047
-605,971	27,312	-0,166	0,116
-604,957	-69,313	-0,361	-0,115
-603,942	168,079	-0,041	0,049
-602,928	-200,000	-0,077	-0,430
-601,913	466,124	-0,195	0,364
-600,898	157,190	-0,155	0,178
-599,884	-140,321	0,323	0,028
-598,869	320,499	0,154	0,244
-597,855	-110,797	-0,387	0,066
-596,840	-160,666	0,534	0,023
-595,825	-58,527	-0,402	-0,144
-594,811	-200,000	0,016	0,689
-593,796	-200,000	-0,031	-0,372
-592,782	-130,968	-0,476	-0,052
-591,767	-87,977	-0,444	-0,110
-590,752	38,305	0,275	-0,203
-589,738	-200,000	-0,025	0,190
-588,723	-200,000	-0,009	-0,418
-587,709	-125,810	0,639	0,079
-586,694	-169,198	-0,341	0,010
-585,679	447,245	-0,167	-0,306
-584,665	165,671	-0,104	0,123
-583,650	700,000	-0,169	0,446
-582,636	700,000	-0,077	-0,272
-581,621	-178,300	-0,310	0,006
-580,606	90,253	-0,327	-0,304
-579,592	700,000	-0,075	-0,220
-578,577	167,200	0,188	-0,222
-577,563	-59,272	0,301	-0,107
-576,548	-12,003	0,090	-0,049
-575,533	-134,243	-0,524	0,053
-574,519	700,000	-0,076	-0,265
-573,504	-54,499	0,314	0,118
-572,490	95,982	-0,335	0,318
-571,475	-158,794	0,559	0,026
-570,461	159,267	-0,269	-0,311
-569,446	81,065	-0,273	0,245
-568,431	700,000	-0,158	0,352
-567,417	-62,103	-0,217	-0,075
-566,402	483,190	0,125	-0,237
-565,388	-200,000	-0,038	0,163
-564,373	165,974	0,197	-0,232
-563,358	4,214	0,398	0,241
-562,344	-81,272	0,260	0,071
-561,329	-35,031	-0,087	0,039
-560,315	-44,754	0,082	0,034
-559,300	-200,000	0,026	0,203
-558,285	214,100	-0,279	-0,368
-557,271	217,317	0,231	-0,306
-556,256	-200,000	0,022	0,367
-555,242	-8,813	0,152	0,084
-554,227	220,095	-0,238	-0,318
-553,212	-200,000	0,032	-0,549
-552,198	201,952	-0,259	-0,331
-551,183	151,579	-0,132	0,149
-550,169	-200,000	-0,042	0,266
-549,154	-200,000	0,068	0,274
-548,139	389,034	0,287	0,495
-547,125	-95,209	-0,338	0,075
-546,110	8,999	0,121	-0,076
-545,096	52,896	-0,502	-0,398
-544,081	415,673	0,183	-0,324
-543,066	116,485	-0,131	0,133
-542,052	700,000	0,140	0,390
-541,037	-200,000	0,058	-0,353
-540,023	202,139	0,105	-0,135
-539,008	209,831	0,244	0,318
-537,993	362,360	0,152	0,254
-536,979	-19,117	0,391	-0,201
-535,964	7,163	-0,238	0,147
-534,950	73,429	0,277	0,240
-533,935	-200,000	0,041	0,596
-532,920	-200,000	-0,127	0,697
-531,906	-200,000	-0,020	0,598
-530,891	380,198	0,234	-0,399
-529,877	-109,981	-0,111	-0,019
-528,862	-28,905	0,271	0,128
-527,848	-11,414	-0,263	-0,143
-526,833	163,261	-0,261	-0,305
-525,818	-65,184	-0,488	-0,162
-524,804	135,756	0,228	-0,247
-523,789	202,210	-0,282	0,362
-522,775	-200,000	0,099	-0,858
-521,760	-200,000	0,033	0,182
-520,745	328,986	-0,399	-0,637
-519,731	-200,000	0,013	-1,070
-518,716	564,990	0,233	-0,470
-517,702	309,112	0,359	0,558
-516,687	-200,000	-0,113	-0,864
-515,672	-27,130	-0,229	-0,110
-514,658	57,898	0,283	-0,229
-513,643	75,961	-0,208	-0,182
-512,629	393,629	-0,114	-0,198
-511,614	-22,743	-0,223	0,111
-510,599	-200,000	-0,045	0,592
-509,585	-27,395	0,178	-0,085
-508,570	407,920	-0,132	-0,232
-507,556	474,787	0,176	0,331
-506,541	-200,000	-0,013	0,313
-505,526	-200,000	0,045	0,467
-504,512	196,101	-0,211	-0,266
-503,497	109,605	0,358	-0,355
-502,483	537,259	-0,122	0,241
-501,468	-73,306	-0,291	-0,088
-500,453	-200,000	0,008	-0,223
-499,439	-50,752	-0,504	0,196
-498,424	-200,000	0,036	0,202
-497,410	521,772	-0,045	0,088
-496,395	-44,858	-0,490	-0,202
-495,380	19,794	-0,492	-0,328
-494,366	-21,593	0,368	0,185
-493,351	-97,507	0,455	-0,097
-492,337	-35,849	-0,085	0,038
-491,322	387,189	-0,136	0,234
-490,308	609,649	-0,098	-0,203
-489,293	700,000	0,162	-0,416
-488,278	141,866	-0,179	-0,197
-487,264	64,882	-0,259	0,216
-486,249	-63,164	-0,357	-0,121
-485,235	-200,000	0,028	-0,388
-484,220	69,030	-0,483	0,411
-483,205	700,000	0,220	0,599
-482,191	5,389	0,209	0,127
-481,176	42,143	-0,573	-0,430
-480,162	509,969	0,239	-0,461
-479,147	-144,376	0,486	0,037
-478,132	-200,000	-0,072	0,332
-477,118	181,537	-0,327	0,399
-476,103	570,516	0,097	-0,196
-475,089	225,587	-0,784	1,053
-474,074	-99,235	0,338	-0,070
-473,059	-178,202	0,208	0,004
-472,045	700,000	-0,064	0,211
-471,030	700,000	0,110	-0,296
-470,016	102,065	0,127	-0,122
-469,001	700,000	-0,045	-0,140
-467,986	-200,000	-0,165	0,602
-466,972	-24,849	0,261	0,128
-465,957	-177,072	-0,187	-0,004
-464,943	50,926	0,198	-0,155
-463,928	-200,000	0,105	0,434
-462,913	-31,691	-0,264	-0,122
-461,899	-70,759	-0,444	-0,138
-460,884	700,000	0,131	-0,350
-459,870	-187,617	-0,354	-0,004
-458,855	700,000	0,118	-0,321
-457,840	-200,000	-0,011	-0,278
-456,826	-146,967	-0,589	0,041
-455,811	75,963	-0,349	-0,305
-454,797	-200,000	-0,018	-0,075
-453,782	-115,605	-0,134	-0,021
-452,768	700,000	-0,143	-0,512
-451,753	-120,585	0,314	0,044
-450,738	508,309	-0,165	0,318
-449,724	239,899	-0,255	0,351
-448,709	159,899	-0,267	-0,308
-447,695	-69,564	-0,398	0,125
-446,680	89,678	-0,122	-0,113
-445,665	644,091	0,092	-0,194
-444,651	700,000	-0,089	-0,292
-443,636	414,224	-0,015	-0,027
-442,622	392,003	-0,320	-0,551
-441,607	700,000	0,202	-0,556
-440,592	-200,000	0,020	-0,274
-439,578	178,111	0,315	-0,380
-438,563	302,139	-0,307	-0,471
-437,549	-200,000	-0,020	-0,629
-436,534	-8,205	0,351	-0,195
-435,519	-27,608	-0,312	0,149
-434,505	475,647	0,110	0,207
-433,490	-74,791	-0,365	0,108
-432,476	256,819	0,121	-0,172
-431,461	-83,090	0,481	-0,127
-430,446	134,452	0,266	-0,285
-429,432	83,770	-0,157	-0,141
-428,417	700,000	0,092	0,240
-427,403	138,394	0,214	-0,232
-426,388	401,713	0,296	0,515
-425,373	-60,278	-0,276	0,096
-424,359	700,000	0,194	0,679
-423,344	97,617	0,275	-0,261
-422,330	373,795	-0,083	0,141
-421,315	225,951	0,073	0,098
-420,300	700,000	-0,167	0,464
-419,286	60,010	0,114	-0,093
-418,271	-125,712	0,215	-0,027
-417,257	-200,000	0,033	-0,212
-416,242	-173,029	0,217	0,005
-415,228	11,522	-0,290	0,183
-414,213	-42,505	-0,205	-0,086
-413,198	192,435	0,234	-0,292
-412,184	169,351	0,223	-0,263
-411,169	120,878	0,216	0,222
-410,155	-112,926	-0,142	0,023
-409,140	-86,580	0,253	-0,064
-408,125	22,709	-0,194	-0,131
-407,111	700,000	0,187	-0,656
-406,096	-176,365	0,342	-0,007
-405,082	64,137	0,485	-0,403
-404,067	-160,668	0,089	-0,004
-403,052	-99,866	-0,284	0,058
-402,038	700,000	0,026	0,085
-401,023	700,000	0,073	-0,263
-400,009	74,789	0,205	-0,178
-398,994	-91,158	-0,419	-0,098
-397,979	321,501	-0,334	0,526
-396,965	61,697	-0,125	0,102
-395,950	-12,288	-0,183	0,098
-394,936	-6,149	0,270	0,152
-393,921	700,000	0,150	-0,403
-392,906	63,182	0,307	0,253
-391,892	11,989	-0,277	0,176
-390,877	312,468	0,319	0,495
-389,863	-31,532	-0,252	0,116
-388,848	-93,502	0,233	-0,053
-387,833	-122,132	0,682	0,091
-386,819	-200,000	0,000	-0,271
-385,804	-80,005	-0,233	0,064
-384,790	75,998	-0,219	0,191
-383,775	700,000	-0,099	-0,312
-382,760	-67,773	-0,312	0,100
-381,746	-178,302	-0,292	0,006
-380,731	-87,665	0,512	-0,127
-379,717	-8,882	-0,657	-0,362
-378,702	373,811	-0,191	0,321
-377,687	112,086	-0,414	-0,413
-376,673	700,000	0,146	0,427
-375,658	221,777	0,084	-0,112
-374,644	56,528	-0,158	0,126
-373,629	-36,369	-0,334	-0,148
-372,615	-200,000	-0,031	0,442
-371,600	-165,329	0,179	0,006
-370,585	700,000	0,199	-0,444
-369,571	700,000	0,104	-0,300
-368,556	219,828	-0,132	-0,175
-367,542	-200,000	-0,054	-0,510
-366,527	-64,581	0,423	-0,141
-365,512	-115,058	0,241	-0,037
-364,498	-38,687	-0,115	-0,050
-363,483	137,262	-0,116	0,125
-362,469	-200,000	0,019	0,126
-361,454	217,987	-0,048	-0,063
-360,439	8,873	0,436	-0,270
-359,425	-83,250	-0,279	-0,073
-358,410	478,749	0,186	0,347
-357,396	-193,792	0,292	-0,002
-356,381	177,618	-0,091	0,109
-355,366	-200,000	-0,075	-0,509
-354,352	30,094	-0,188	0,132
-353,337	-200,000	-0,019	0,440
-352,323	-4,346	-0,195	-0,111
-351,308	-58,024	-0,179	0,064
-350,293	-148,046	-0,357	0,024
-349,279	-200,000	-0,067	0,420
-348,264	49,030	0,340	0,263
-347,250	-133,344	-0,105	0,011
-346,235	-200,000	-0,015	0,276
-345,220	700,000	-0,019	0,059
-344,206	-200,000	0,055	0,412
-343,191	-17,803	0,093	-0,048
-342,177	34,368	0,094	0,067
-341,162	700,000	-0,064	0,228
-340,147	662,741	-0,242	0,515
-339,133	-200,000	-0,096	0,383
-338,118	-48,921	0,165	0,065
-337,104	-76,438	0,218	0,063
-336,089	-138,192	0,378	0,034
-335,075	-101,215	0,358	-0,071
-334,060	283,423	0,172	0,254
-333,045	-32,953	-0,365	0,166
-332,031	700,000	-0,113	0,342
-331,016	-200,000	0,029	0,206
-330,002	80,892	0,215	0,190
-328,987	700,000	-0,132	-0,402
-327,972	-200,000	-0,051	-0,295
-326,958	-200,000	0,113	-0,467
-325,943	-83,180	-0,451	0,119
-324,929	443,648	-0,129	0,234
-323,914	-113,424	-0,055	0,009
-322,899	9,630	-0,443	0,275
-321,885	-35,394	-0,455	-0,202
-320,870	-200,000	-0,036	-0,319
-319,856	-140,991	-0,185	0,015
-318,841	416,127	-0,099	-0,174
-317,826	700,000	-0,115	0,330
-316,812	209,818	-0,188	-0,243
-315,797	-92,405	0,519	0,119
-314,783	657,870	0,166	0,352
-313,768	63,953	-0,277	0,229
-312,753	-200,000	0,077	0,522
-311,739	197,361	-0,423	0,531
-310,724	-22,988	0,803	0,397
-309,710	49,799	0,276	0,214
-308,695	-200,000	0,040	-0,231
-307,680	70,488	-0,212	0,180
-306,666	-200,000	0,011	-0,298
-305,651	-38,268	-0,004	0,002
-304,637	336,676	0,091	-0,146
-303,622	-200,000	-0,022	-0,651
-302,607	700,000	0,135	0,484
-301,593	447,466	-0,292	0,530
-300,578	-200,000	-0,049	0,310
-299,564	700,000	-0,159	0,417
-298,549	-122,338	0,232	-0,031
-297,535	700,000	0,089	-0,212
-296,520	10,086	0,265	-0,165
-295,505	-7,756	0,120	-0,066
-294,491	-29,362	-0,702	-0,329
-293,476	-33,860	0,458	-0,207
-292,462	700,000	-0,030	-0,107
-291,447	-200,000	-0,094	-0,379
-290,432	-200,000	0,061	-0,247
-289,418	-174,506	0,509	0,012
-288,403	-146,693	-0,481	0,034
-287,389	131,005	0,454	-0,479
-286,374	152,653	0,315	-0,353
-285,359	-52,687	-0,652	0,246
-284,345	442,826	-0,150	-0,270
-283,330	-73,130	-0,088	0,026
-282,316	318,285	-0,051	0,080
-281,301	-200,000	0,048	0,325
-280,286	-200,000	-0,166	0,901
-279,272	311,828	0,318	0,491
-278,257	-40,989	-0,411	0,174
-277,243	-200,000	0,054	0,368
-276,228	-200,000	0,052	0,561
-275,213	151,053	0,073	0,082
-274,199	166,654	0,265	0,309
-273,184	-200,000	-0,095	0,351
-272,170	700,000	-0,149	0,415
-271,155	214,010	0,151	-0,197
-270,140	113,378	-0,124	-0,123
-269,126	-200,000	-0,016	-0,286
-268,111	133,527	-0,661	0,702
-267,097	-200,000	0,044	0,394
-266,082	-69,080	0,290	-0,091
-265,067	-200,000	-0,021	-0,261
-264,053	129,807	-0,253	0,266
-263,038	-200,000	0,006	0,416
-262,024	-200,000	-0,093	-0,408
-261,009	-41,250	0,117	-0,049
-259,994	604,022	0,079	-0,162
-258,980	79,627	-0,279	0,245
-257,965	-200,000	-0,008	0,260
-256,951	153,375	0,078	-0,087
-255,936	138,004	0,308	0,332
-254,922	67,417	-0,182	-0,152
-253,907	-200,000	-0,038	-0,247
-252,892	-1,566	-0,392	0,226
-251,878	68,391	0,210	-0,176
-250,863	180,753	0,283	0,342
-249,849	-38,314	0,505	-0,219
-248,834	11,114	0,232	-0,145
-247,819	-200,000	0,030	-0,176
-246,805	-23,564	-0,389	0,191
-245,790	211,733	0,197	0,255
-244,776	641,459	0,132	0,277
-243,761	28,671	0,359	-0,249
-242,746	172,942	0,306	-0,362
-241,732	-200,000	-0,055	-0,232
-240,717	-200,000	0,089	0,781
-239,703	179,296	0,260	-0,312
-238,688	411,654	-0,149	0,261
-237,673	39,017	0,332	0,243
-236,659	-123,481	0,124	-0,016
-235,644	-156,584	0,200	-0,010
-234,630	-30,135	-0,161	-0,075
-233,615	-16,192	0,569	-0,295
-232,600	418,335	-0,235	-0,413
-231,586	14,813	0,049	0,031
-230,571	-200,000	0,013	0,487
-229,557	700,000	0,087	0,205
-228,542	84,281	0,113	0,101
-227,527	58,876	-0,117	0,094
-226,513	-110,652	-0,325	0,055
-225,498	37,802	0,614	-0,447
-224,484	-91,919	-0,135	0,031
-223,469	-104,127	0,310	-0,059
-222,454	111,931	0,189	-0,187
-221,440	-108,970	-0,514	-0,089
-220,425	40,063	0,294	-0,216
-219,411	93,511	0,432	0,401
-218,396	-1,648	-0,269	-0,155
-217,382	-200,000	0,068	0,345
-216,367	620,355	-0,209	0,433
-215,352	365,579	0,097	-0,161
-214,338	-200,000	-0,048	-0,341
-213,323	-200,000	-0,024	0,496
-212,309	37,994	0,368	0,268
-211,294	-200,000	0,016	0,115
-210,279	120,833	-0,061	-0,062
-209,265	143,482	-0,212	-0,231
-208,250	442,226	0,226	0,406
-207,236	85,392	0,345	0,310
-206,221	-138,890	-0,590	0,052
-205,206	20,890	0,424	-0,281
-204,192	-200,000	-0,135	-0,585
-203,177	-200,000	0,013	-0,207
-202,163	179,383	-0,320	-0,384
-201,148	493,720	-0,105	-0,198
-200,133	78,138	0,482	-0,421
-199,119	700,000	0,214	-0,495
-198,104	700,000	-0,081	0,217
-197,090	691,541	-0,144	-0,310
-196,075	223,907	-0,058	0,076
-195,060	-87,394	-0,341	-0,084
-194,046	116,705	-0,164	0,165
-193,031	7,916	0,477	-0,292
-192,017	-200,000	0,002	0,178
-191,002	-35,393	-0,182	-0,081
-189,987	-200,000	-0,004	-0,111
-188,973	-200,000	0,032	0,221
-187,958	26,476	0,058	-0,040
-186,944	-76,963	0,077	0,022
-185,929	-200,000	-0,016	-0,207
-184,914	-200,000	-0,061	0,460
-183,900	-167,381	0,624	-0,020
-182,885	8,005	-0,243	-0,149
-181,871	-42,009	0,267	0,111
-180,856	393,612	-0,125	0,214
-179,842	-145,927	0,073	-0,005
-178,827	700,000	-0,157	0,396
-177,812	-200,000	0,002	0,082
-176,798	80,332	-0,263	0,232
-175,783	-174,506	-0,446	-0,010
-174,769	700,000	-0,193	0,446
-173,754	62,051	0,246	0,200
-172,739	98,816	-0,297	-0,281
-171,725	184,760	-0,190	-0,231
-170,710	-19,464	0,442	-0,223
-169,696	48,281	0,166	-0,127
-168,681	-120,394	0,161	-0,022
-167,666	-81,835	-0,034	-0,009
-166,652	467,106	-0,228	0,419
-165,637	-88,719	0,010	-0,002
-164,623	119,362	0,189	0,191
-163,608	-200,000	-0,063	-0,425
-162,593	512,481	-0,225	0,430
-161,579	73,906	0,248	0,212
-160,564	2,195	0,146	-0,086
-159,550	121,689	-0,250	-0,255
-158,535	-36,187	-0,123	-0,054
-157,520	-93,821	0,155	0,035
-156,506	700,000	0,041	0,128
-155,491	-200,000	0,040	0,473
-154,477	60,046	-0,194	-0,157
-153,462	700,000	0,050	-0,133
-152,447	324,504	-0,088	-0,138
-151,433	-120,595	0,093	-0,013
-150,418	-142,122	0,364	0,029
-149,404	-26,409	0,306	0,146
-148,389	-137,219	-0,518	0,048
-147,374	-199,173	-0,065	0,000
-146,360	64,094	0,284	0,233
-145,345	-64,739	-0,503	-0,166
-144,331	-200,000	-0,009	0,209
-143,316	-200,000	-0,025	-0,093
-142,302	-84,890	-0,297	0,076
-141,287	700,000	-0,154	0,358
-140,272	-200,000	-0,024	-0,329
-139,258	132,626	0,096	-0,101
-138,243	341,873	0,425	0,680
-137,229	537,900	0,196	0,381
-136,214	-200,000	-0,042	0,301
-135,199	-176,533	0,332	0,007
-134,185	700,000	0,077	-0,233
-133,170	-200,000	-0,031	-0,154
-132,156	15,589	-0,346	-0,222
-131,141	-69,491	0,276	0,086
-130,126	25,482	-0,398	0,270
-129,112	-70,801	0,176	-0,054
-128,097	82,229	-0,590	0,522
-127,083	8,528	-0,292	0,179
-126,068	22,262	0,129	-0,086
-125,053	-200,000	-0,031	-0,608
-124,039	115,871	-0,237	0,237
-123,024	-175,065	-0,348	-0,008
-122,010	-107,917	-0,683	0,120
-120,995	-45,985	0,663	0,266
-119,980	387,516	0,290	0,491
-118,966	92,270	0,086	-0,079
-117,951	-200,000	0,053	0,311
-116,937	8,730	0,459	-0,281
-115,922	-200,000	0,258	-0,001
-114,907	-200,000	0,046	0,376
-113,893	700,000	-0,078	0,237
-112,878	-200,000	-0,001	0,287
-111,864	-198,312	0,887	0,004
-110,849	-35,090	-0,320	-0,142
-109,834	-200,000	-0,067	0,428
-108,820	700,000	0,209	0,475
-107,805	-40,824	-0,177	0,074
-106,791	-78,642	0,445	0,123
-105,776	-200,000	0,143	0,668
-104,761	-122,613	-0,226	-0,030
-103,747	184,111	-0,139	0,168
-102,732	359,140	-0,231	-0,377
-101,718	-136,038	0,186	-0,018
-100,703	-200,000	0,009	-0,421
-99,689	11,702	0,149	-0,093
-98,674	646,850	0,244	-0,509
-97,659	355,862	0,201	0,326
-96,645	700,000	0,153	0,494
-95,630	-94,528	-0,417	-0,092
-94,616	76,925	-0,108	0,094
-93,601	-182,433	0,361	0,005
-92,586	71,065	0,628	0,530
-91,572	700,000	0,215	0,483
-90,557	590,114	-0,143	0,288
-89,543	389,020	-0,408	-0,691
-88,528	700,000	0,153	-0,371
-87,513	-131,377	-0,392	0,042
-86,499	312,462	-0,230	-0,353
-85,484	700,000	0,146	0,471
-84,470	-200,000	0,003	0,503
-83,455	-79,994	0,324	-0,088
-82,440	305,003	-0,249	-0,377
-81,426	-146,945	-0,305	0,021
-80,411	-20,300	0,170	-0,085
-79,397	-19,688	0,504	0,253
-78,382	-200,000	0,094	-0,352
-77,367	-181,782	-0,238	-0,004
-76,353	-7,643	0,088	-0,048
-75,338	127,648	0,144	-0,149
-74,324	-160,975	0,238	-0,010
-73,309	-200,000	-0,013	0,116
-72,294	199,620	0,254	-0,318
-71,280	-134,213	0,282	-0,028
-70,265	143,983	-0,157	-0,171
-69,251	-68,396	-0,228	0,072
-68,236	-69,249	0,441	-0,137
-67,221	30,706	-0,368	0,256
-66,207	-200,000	-0,007	0,518
-65,192	40,030	-0,350	-0,255
-64,178	-54,438	0,330	0,121
-63,163	-126,725	0,372	0,044
-62,149	-136,309	0,360	-0,034
-61,134	-200,000	-0,292	1,294
-60,119	267,009	-2,750	-3,924
-59,105	-3,720	1,395	0,787
-58,090	423,056	0,413	-0,725
-57,076	593,396	3,531	7,133
-56,061	84,350	59,844	53,258
-55,046	430,744	1146,876	2027,951
-54,032	303,205	2184,023	3301,260
-53,017	99,453	2004,118	1887,115
-52,003	31,011	1751,676	1220,365
-50,988	22,002	1551,833	1028,309
-49,973	17,219	1481,406	954,654
-48,959	15,893	1464,363	936,228
-47,944	15,630	1458,989	931,289
-46,930	15,576	1454,760	928,252
-45,915	15,485	1452,225	926,094
-44,900	15,338	1449,668	923,616
-43,886	15,503	1447,152	922,889
-42,871	15,495	1444,341	921,011
-41,857	15,391	1442,800	919,423
-40,842	15,357	1441,599	918,433
-39,827	15,355	1440,279	917,544
-38,813	15,596	1437,300	916,931
-37,798	15,459	1436,046	915,343
-36,784	15,354	1436,045	914,730
-35,769	15,383	1434,426	913,824
-34,754	15,446	1432,107	912,655
-33,740	15,422	1431,116	911,857
-32,725	15,493	1429,280	911,038
-31,711	15,464	1428,240	910,178
-30,696	15,444	1426,576	908,975
-29,681	15,356	1425,828	907,983
-28,667	15,390	1424,517	907,294
-27,652	15,536	1422,275	906,627
-26,638	15,314	1420,637	904,343
-25,623	15,378	1420,460	904,538
-24,609	15,343	1419,631	903,789
-23,594	15,286	1418,289	902,586
-22,579	15,570	1415,776	902,486
-21,565	15,302	1415,373	900,745
-20,550	15,424	1414,630	900,896
-19,536	15,433	1413,072	899,914
-18,521	15,166	1412,683	898,197
-17,506	15,285	1411,667	898,155
-16,492	15,294	1410,755	897,584
-15,477	15,244	1409,568	896,524
-14,463	15,328	1408,236	896,095
-13,448	15,165	1407,612	894,789
-12,433	15,213	1406,517	894,315
-11,419	15,350	1405,534	894,388
-10,404	15,078	1405,041	892,580
-9,390	15,186	1403,817	892,346
-8,375	15,123	1401,552	890,536
-7,360	15,251	1400,843	890,729
-6,346	15,314	1400,280	890,675
-5,331	15,302	1398,901	889,697
-4,317	15,047	1398,282	887,911
-3,302	15,037	1396,754	886,850
-2,287	15,209	1395,549	886,966
-1,273	15,238	1395,949	887,340
-0,258	14,512	1398,142	884,825
0,756	11,854	1359,780	848,022
1,771	6,441	1295,021	780,682
2,786	3,135	1266,378	747,247
3,800	2,343	1260,623	739,956
4,815	1,813	1253,680	733,272
5,829	0,941	1249,598	726,632
6,844	0,559	1247,290	723,408
7,859	0,728	1245,165	722,945
8,873	0,575	1243,170	721,004
9,888	0,657	1239,996	719,516
10,902	0,654	1238,781	718,750
11,917	0,587	1236,942	717,320
12,931	0,450	1235,328	715,686
13,946	0,709	1232,363	715,156
14,961	0,465	1231,824	713,640
15,975	0,659	1229,626	713,243
16,990	0,547	1228,553	712,049
18,004	0,459	1226,719	710,526
19,019	0,691	1224,283	710,169
20,034	0,700	1222,257	708,990
21,048	0,616	1220,737	707,672
22,063	0,690	1219,482	707,246
23,077	0,563	1217,760	705,608
24,092	0,713	1216,175	705,352
25,107	0,789	1214,461	704,670
26,121	0,929	1211,431	703,526
27,136	0,768	1210,757	702,338
28,150	0,920	1207,114	700,890
29,165	1,006	1204,339	699,636
30,180	0,964	1202,415	698,278
31,194	0,956	1200,208	696,920
32,209	1,024	1195,171	694,265
33,223	1,209	1191,286	692,813
34,238	1,406	1187,210	691,304
35,253	1,426	1184,571	689,819
36,267	1,341	1183,009	688,478
37,282	1,333	1181,557	687,555
38,296	1,392	1180,152	686,961
39,311	1,433	1179,130	686,514
40,326	1,290	1178,333	685,358
41,340	1,143	1177,539	684,184
42,355	1,517	1175,882	684,874
43,369	1,528	1174,284	683,953
44,384	1,436	1174,654	683,712
45,399	1,337	1173,894	682,780
46,413	1,303	1172,535	681,794
47,428	1,349	1169,986	680,479
48,442	1,442	1169,252	680,429
49,457	1,241	1167,871	678,681
50,472	1,464	1166,488	678,834
51,486	1,303	1166,531	678,096
52,501	1,337	1164,473	677,010
53,515	1,522	1163,212	677,064
54,530	1,453	1162,670	676,399
55,544	1,611	1160,771	675,959
56,559	1,402	1160,588	674,877
57,574	1,412	1159,698	674,363
58,588	1,340	1158,653	673,396
59,603	1,514	1157,725	673,586
60,617	1,334	1156,740	672,175
61,632	1,515	1155,320	672,112
62,647	1,461	1153,941	671,031
63,661	1,441	1152,755	670,211
64,676	1,339	1151,935	669,241
65,690	1,479	1151,481	669,558
66,705	1,524	1149,537	668,583
67,720	1,131	1149,276	666,656
68,734	1,389	1148,399	667,245
69,749	1,281	1147,020	665,925
70,763	1,415	1145,981	665,873
71,778	1,172	1145,065	664,231
72,793	1,510	1143,571	664,810
73,807	1,793	1144,226	666,394
74,822	3,077	1143,563	671,604
75,836	4,657	1145,644	679,733
76,851	5,080	1144,059	680,606
77,866	4,812	1143,300	678,940
78,880	4,898	1143,325	679,287
79,895	5,021	1141,183	678,514
80,909	4,982	1139,300	677,180
81,924	4,903	1138,357	676,236
82,939	4,643	1137,624	674,624
83,953	4,479	1135,939	672,869
84,968	3,005	1131,878	664,025
85,982	2,204	1129,451	659,088
86,997	1,926	1128,312	657,180
88,012	1,958	1127,264	656,669
89,026	2,238	1126,839	657,592
90,041	1,974	1125,732	655,766
91,055	1,952	1123,732	654,466
92,070	2,077	1124,027	655,135
93,084	2,360	1122,769	655,584
94,099	2,383	1122,596	655,542
95,114	2,151	1120,796	653,451
96,128	1,945	1119,205	651,600
97,143	1,667	1118,850	650,161
98,157	1,617	1117,325	649,018
99,172	1,722	1116,354	648,867
100,187	1,591	1115,267	647,635
101,201	1,743	1113,284	647,092
102,216	1,748	1112,453	646,592
103,230	1,737	1110,897	645,600
104,245	1,765	1110,499	645,450
105,260	1,661	1109,225	644,226
106,274	1,516	1108,651	643,236
107,289	1,742	1107,813	643,673
108,303	1,419	1106,403	641,442
109,318	1,453	1105,862	641,235
110,333	1,627	1104,365	641,066
111,347	1,412	1103,690	639,724
112,362	1,710	1101,858	639,884
113,376	1,535	1100,355	638,233
114,391	1,299	1099,775	636,863
115,406	1,561	1098,578	637,232
116,420	1,429	1098,066	636,342
117,435	1,548	1096,610	635,957
118,449	1,535	1095,375	635,148
119,464	1,565	1093,863	634,359
120,479	1,416	1093,330	633,386
121,493	1,430	1091,525	632,363
122,508	1,270	1090,857	631,269
123,522	1,247	1090,027	630,652
124,537	1,092	1089,243	629,514
125,552	1,036	1087,507	628,240
126,566	1,091	1086,760	627,999
127,581	0,907	1085,623	626,538
128,595	1,018	1084,196	626,138
129,610	0,813	1084,051	625,164
130,624	0,966	1082,756	625,014
131,639	1,063	1081,127	624,436
132,654	1,060	1080,218	623,861
133,668	0,912	1079,820	622,982
134,683	1,030	1078,841	622,864
135,697	1,042	1078,863	622,889
136,712	1,098	1077,978	622,572
137,727	1,088	1077,680	622,320
138,741	1,153	1075,591	621,345
139,756	1,082	1074,963	620,651
140,770	1,182	1074,059	620,501
141,785	1,332	1073,350	620,672
142,800	1,074	1073,454	619,635
143,814	1,163	1071,835	619,027
144,829	1,257	1071,777	619,341
145,843	1,214	1070,740	618,527
146,858	1,229	1069,122	617,617
147,873	1,179	1069,443	617,558
148,887	1,324	1067,826	617,181
149,902	1,140	1066,854	615,832
150,916	1,255	1065,271	615,349
151,931	1,340	1065,099	615,558
152,946	1,053	1064,037	613,737
153,960	1,182	1063,468	613,896
154,975	1,171	1061,552	612,707
155,989	1,125	1060,804	612,055
157,004	1,082	1059,658	611,181
158,019	1,207	1058,193	610,803
159,033	0,940	1058,585	609,912
160,048	0,916	1056,484	608,569
161,062	0,672	1055,643	607,062
162,077	0,810	1054,397	606,866
163,092	0,803	1053,024	606,008
164,106	0,898	1052,123	605,835
165,121	0,936	1051,035	605,324
166,135	1,017	1051,212	605,717
167,150	0,955	1049,830	604,635
168,165	0,920	1049,337	604,173
169,179	0,977	1048,578	603,928
170,194	1,099	1047,927	604,003
171,208	1,132	1046,199	603,101
172,223	1,349	1045,971	603,801
173,237	1,376	1045,278	603,473
174,252	1,535	1044,739	603,758
175,267	1,446	1043,508	602,657
176,281	1,448	1043,114	602,401
177,296	1,602	1042,387	602,558
178,310	1,771	1040,933	602,350
179,325	1,662	1040,102	601,399
180,340	1,664	1039,944	601,283
181,354	1,728	1038,569	600,704
182,369	1,630	1037,926	599,905
183,383	1,827	1037,167	600,209
184,398	1,625	1037,208	599,397
185,413	1,734	1036,000	599,094
186,427	1,774	1035,192	598,750
187,442	1,481	1034,786	597,320
188,456	1,868	1033,707	598,189
189,471	1,588	1033,581	596,974
190,486	1,921	1032,019	597,347
191,500	1,775	1031,153	596,234
192,515	1,669	1031,530	595,998
193,529	1,603	1031,126	595,469
194,544	1,913	1029,509	595,719
195,559	1,885	1029,458	595,541
196,573	2,150	1028,897	596,220
197,588	2,431	1028,432	597,017
198,602	2,463	1027,995	596,853
199,617	2,149	1026,489	594,711
200,632	2,002	1026,438	594,072
201,646	2,030	1025,348	593,515
202,661	2,092	1024,340	593,135
203,675	1,958	1023,561	592,126
204,690	2,309	1023,647	593,509
205,705	3,252	1025,671	598,331
206,719	4,783	1025,845	604,376
207,734	4,374	1023,608	601,428
208,748	3,007	1022,502	595,419
209,763	3,295	1022,781	596,669
210,777	3,910	1022,215	598,696
211,792	4,149	1017,366	596,744
212,807	4,273	1012,336	594,235
213,821	3,893	1010,873	591,878
214,836	3,520	1008,480	589,010
215,850	2,485	1005,683	583,377
216,865	2,354	1003,878	581,792
217,880	2,958	1004,425	584,383
218,894	4,727	1005,505	591,744
219,909	5,263	1005,829	593,949
220,923	5,465	1004,810	594,081
221,938	5,549	1003,239	593,436
222,953	5,679	1002,382	593,389
223,967	5,635	1002,124	593,031
224,982	5,714	1000,549	592,364
225,996	5,542	1000,159	591,444
227,011	5,642	998,875	591,028
228,026	4,872	996,408	586,617
229,040	2,915	992,520	576,908
230,055	1,984	991,968	573,038
231,069	1,856	991,095	572,017
232,084	2,061	990,036	572,144
233,099	1,862	988,578	570,515
234,113	1,752	987,726	569,578
235,128	2,205	987,281	570,986
236,142	2,577	986,716	572,023
237,157	2,545	984,258	570,442
238,172	2,137	982,819	568,048
239,186	2,089	981,926	567,317
240,201	2,063	981,045	566,679
241,215	1,915	979,407	565,145
242,230	1,915	978,357	564,505
243,245	2,077	976,896	564,229
244,259	2,066	976,199	563,750
245,274	1,564	975,550	561,482
246,288	2,018	974,197	562,348
247,303	1,893	972,826	561,062
248,317	1,766	972,703	560,488
249,332	1,948	971,455	560,404
250,347	2,088	970,435	560,299
251,361	1,977	969,509	559,322
252,376	1,916	968,718	558,606
253,390	1,821	966,943	557,198
254,405	1,342	966,461	555,129
255,420	1,789	965,452	556,154
256,434	1,939	965,571	556,740
257,449	1,898	965,052	556,258
258,463	1,844	963,947	555,390
259,478	1,891	962,184	554,510
260,493	1,879	961,257	553,900
261,507	2,111	961,027	554,581
262,522	1,969	959,622	553,216
263,536	1,940	959,112	552,782
264,551	1,967	958,016	552,218
265,566	1,954	957,352	551,753
266,580	1,978	956,725	551,445
267,595	2,036	955,117	550,695
268,609	2,138	954,771	550,831
269,624	1,981	954,771	550,229
270,639	1,981	953,470	549,445
271,653	2,026	952,436	548,979
272,668	1,962	951,647	548,261
273,682	1,942	951,058	547,816
274,697	1,975	950,043	547,316
275,712	1,968	948,942	546,623
276,726	2,098	948,122	546,585
277,741	2,016	947,805	546,076
278,755	2,184	947,069	546,222
279,770	2,085	946,185	545,323
280,785	2,089	945,201	544,736
281,799	1,891	945,581	544,212
282,814	1,781	944,122	542,945
283,828	2,024	942,727	542,979
284,843	2,116	942,270	543,012
285,857	1,987	941,978	542,348
286,872	1,916	940,755	541,357
287,887	1,803	940,226	540,616
288,901	2,001	939,404	540,818
289,916	2,041	938,048	540,148
290,930	1,936	937,364	539,346
291,945	2,006	937,286	539,517
292,960	1,887	936,540	538,633
293,974	2,092	935,356	538,647
294,989	1,939	935,056	537,897
296,003	2,362	934,019	538,765
297,018	2,451	933,998	539,038
298,033	2,296	932,438	537,556
299,047	2,107	931,536	536,334
300,062	2,265	931,533	536,860
301,076	2,422	930,139	536,577
302,091	2,322	929,245	535,677
303,106	2,271	930,075	535,943
304,120	4,104	931,433	543,154
305,135	5,429	933,007	548,717
306,149	5,825	931,427	549,147
307,164	5,850	930,254	548,510
308,179	5,672	930,244	547,845
309,193	5,655	928,892	546,956
310,208	5,776	927,508	546,530
311,222	5,690	927,375	546,118
312,237	5,474	926,624	544,885
313,252	5,518	926,085	544,691
314,266	5,692	925,487	544,913
315,281	5,827	925,285	545,234
316,295	5,723	924,897	544,609
317,310	5,272	923,310	542,069
318,325	4,404	921,169	537,755
319,339	3,093	918,573	531,656
320,354	2,114	918,356	528,096
321,368	2,067	917,725	527,537
322,383	2,109	917,241	527,373
323,398	2,096	917,309	527,332
324,412	2,020	916,651	526,660
325,427	2,012	916,077	526,270
326,441	2,068	915,505	526,101
327,456	1,969	914,370	525,077
328,470	1,964	914,222	524,940
329,485	2,156	913,002	524,873
330,500	2,210	912,997	525,023
331,514	1,973	912,973	524,158
332,529	2,212	911,742	524,246
333,543	1,921	911,510	523,077
334,558	2,006	911,244	523,185
335,573	3,145	911,527	527,242
336,587	10,343	869,252	526,340
337,602	57,478	501,449	390,172
338,616	120,110	114,118	112,903
339,631	51,782	15,160	11,487
340,646	77,143	1,541	1,305
341,660	-18,334	-0,434	0,215
342,675	-36,480	-1,484	-0,634
343,689	15,743	-1,011	-0,633
344,704	172,867	-1,135	-1,305
345,719	10,084	-1,603	-0,968
346,733	-65,258	-1,328	-0,424
347,748	132,132	-0,917	-0,941
348,762	56,772	-0,808	-0,626
349,777	0,204	-1,202	-0,681
350,792	-19,128	-1,391	-0,686
351,806	130,718	-1,032	-1,055
352,821	-46,395	-1,698	-0,661
353,835	4,048	-1,086	-0,631
354,850	99,046	-0,765	-0,704
355,865	-37,518	-1,119	-0,473
356,879	5,661	-0,932	-0,547
357,894	-77,383	-1,307	-0,359
358,908	346,791	-0,747	-1,173
359,923	211,520	-1,177	-1,477
360,938	16,575	-0,920	-0,578
361,952	-41,492	-1,203	-0,491
362,967	61,209	-0,955	-0,754
363,981	-2,922	-1,340	-0,743
364,996	-34,265	-1,326	-0,577
366,010	76,799	-1,182	-0,998
367,025	32,334	-1,275	-0,875
368,040	77,552	-0,920	-0,779
369,054	434,991	-0,419	-0,728
370,069	-51,135	-1,239	-0,460
371,083	-26,584	-1,302	-0,605
372,098	45,212	-1,222	-0,895
373,113	-94,504	-1,207	0,260
374,127	-42,755	-1,581	-0,637
375,142	-114,874	-1,113	-0,167
376,156	295,201	-0,643	-0,939
377,171	128,816	-0,913	-0,926
378,186	168,289	-0,683	-0,774
379,200	31,292	-0,784	-0,534
380,215	-39,815	-1,410	-0,583
381,229	359,760	-0,597	-0,952
382,244	-7,492	-0,975	-0,523
383,259	-9,647	-1,003	-0,530
384,273	-0,910	-1,042	-0,585
385,288	-22,744	-1,269	-0,607
386,302	77,090	-0,814	-0,687
387,317	324,100	-0,761	-1,158
388,332	8,998	-1,106	-0,662
389,346	61,184	-0,690	-0,544
390,361	377,411	-0,611	-0,995
391,375	299,935	-0,999	-1,467
392,390	-13,120	-1,215	-0,626
393,405	36,763	-0,922	-0,647
394,419	59,777	-0,967	-0,758
395,434	-21,561	-1,078	-0,521
396,448	-100,585	-1,364	-0,266
397,463	112,764	-0,873	-0,840
398,478	85,288	-0,789	-0,687
399,492	-1,506	-0,889	-0,496
400,507	-38,843	-0,964	-0,402
401,521	-123,051	-0,961	0,121
402,536	66,728	-0,649	-0,524
403,550	143,485	-1,023	-1,083
404,565	14,084	-0,960	-0,592
405,580	-111,250	-0,746	-0,120
406,594	56,147	-1,226	-0,944
407,609	700,000	-0,364	-1,031
408,623	178,657	-0,623	-0,723
409,638	-68,854	-0,663	0,202
410,653	523,406	-0,687	-1,286
411,667	-74,842	-1,170	-0,331
412,682	6,741	-1,279	-0,754
413,696	-77,691	-0,761	-0,208
414,711	-2,355	-0,707	-0,392
415,726	203,862	-0,509	-0,627
416,740	534,073	-0,370	-0,698
417,755	96,907	-0,605	-0,551
418,769	153,584	-0,617	-0,671
419,784	-147,031	-0,869	-0,058
420,799	10,704	-0,661	-0,399
421,813	523,319	-0,453	-0,847
422,828	32,718	-0,851	-0,583
423,842	-32,011	-1,115	-0,493
424,857	80,804	-0,709	-0,606
425,872	59,066	-0,526	-0,410
426,886	-21,867	-0,939	-0,451
427,901	19,835	-1,056	-0,673
428,915	226,017	-0,789	-1,015
429,930	-90,307	-1,217	-0,278
430,945	124,032	-0,745	-0,743
431,959	-66,537	-0,452	-0,142
432,974	145,567	-0,484	-0,514
433,988	-190,696	-0,771	0,006
435,003	42,886	-0,796	-0,574
436,018	18,787	-1,157	-0,733
437,032	246,948	-0,484	-0,649
438,047	45,905	-0,848	-0,621
439,061	123,461	-0,705	-0,700
440,076	-200,000	-0,068	-0,633
441,091	82,922	-0,900	-0,776
442,105	245,231	-0,547	-0,731
443,120	38,735	-0,071	-0,050
444,134	-74,036	-0,828	-0,236
445,149	76,378	-0,790	-0,662
446,163	48,001	-0,648	-0,479
447,178	279,364	-0,425	-0,602
448,193	-26,829	-1,233	-0,569
449,207	81,223	-1,015	-0,868
450,222	-106,414	-1,032	-0,181
451,236	22,008	-0,722	-0,465
452,251	-37,913	-1,093	-0,458
453,266	84,354	-0,704	-0,609
454,280	-44,318	-0,970	-0,383
455,295	362,907	-0,664	-1,058
456,309	308,414	-0,510	-0,755
457,324	134,105	-0,739	-0,759
458,339	-134,573	-0,593	0,057
459,353	113,084	-0,440	-0,423
460,368	390,964	-0,516	-0,850
461,382	90,098	-0,733	-0,648
462,397	224,086	-0,685	-0,877
463,412	-184,286	-0,562	0,007
464,426	-176,748	-0,870	0,017
465,441	211,144	-0,419	-0,523
466,455	65,471	-0,566	-0,453
467,470	-42,821	-0,853	-0,341
468,485	-16,660	-0,474	-0,237
469,499	700,000	-0,336	-0,919
470,514	52,368	-0,321	-0,242
471,528	342,649	-0,467	-0,725
472,543	-67,963	-0,721	-0,221
473,558	-27,768	-0,868	-0,397
474,572	-40,382	-0,698	-0,286
475,587	-96,809	-0,895	-0,184
476,601	590,138	-0,461	-0,902
477,616	-59,316	-0,270	-0,091
478,631	8,496	-0,670	-0,398
479,645	-9,121	-1,153	-0,608
480,660	16,426	-1,249	-0,778
481,674	46,868	-0,618	-0,453
482,689	9,206	-0,972	-0,579
483,703	-178,661	-1,257	-0,022
484,718	-65,798	-0,710	-0,223
485,733	-107,659	-0,961	-0,164
486,747	139,924	-0,614	-0,640
487,762	-20,313	-0,714	-0,346
488,776	95,738	-0,753	-0,679
489,791	-69,049	-0,810	-0,245
490,806	-68,683	-0,839	-0,255
491,820	-42,048	-1,225	-0,493
492,835	200,027	-0,272	-0,330
493,849	24,261	-0,496	-0,323
494,864	-153,491	-1,123	-0,061
495,879	-94,863	-0,853	-0,181
496,893	34,108	-0,729	-0,501
497,908	-138,311	-0,791	-0,068
498,922	28,888	-0,596	-0,398
499,937	25,005	-0,705	-0,461
500,952	411,199	-0,106	-0,178
501,966	90,636	-0,228	-0,201
502,981	43,981	-0,623	-0,450
503,995	63,350	-0,804	-0,635
505,010	-129,052	-1,026	0,112
506,025	-169,364	-0,550	-0,016
507,039	-19,319	-0,657	-0,321
508,054	6,072	-0,945	-0,551
509,068	-48,997	-0,613	-0,231
510,083	78,444	-0,475	-0,400
511,098	-200,000	-0,151	-0,629
512,112	339,835	-0,381	-0,587
513,127	-132,322	-0,739	0,075
514,141	42,013	-0,509	-0,364
515,156	42,786	-0,801	-0,575
516,171	49,974	-0,707	-0,525
517,185	564,940	-0,436	-0,836
518,200	85,086	-0,889	-0,769
519,214	-35,748	-0,316	-0,135
520,229	15,137	-0,525	-0,324
521,243	191,731	-0,493	-0,586
522,258	374,453	-0,536	-0,863
523,273	-72,488	-0,600	-0,174
524,287	700,000	-0,175	-0,445
525,302	-82,749	-0,456	-0,115
526,316	62,087	-0,446	-0,350
527,331	546,756	-0,341	-0,645
528,346	142,318	-0,772	-0,808
529,360	-149,152	-0,869	-0,054
530,375	-127,523	-1,187	-0,134
531,389	-107,344	-0,743	-0,127
532,404	61,506	-0,287	-0,225
533,419	218,718	-0,423	-0,533
534,433	-8,508	-0,619	-0,327
535,448	260,703	-0,457	-0,624
536,462	-76,651	-0,779	-0,214
537,477	262,944	-0,714	-0,978
538,492	245,863	-0,591	-0,786
539,506	27,352	-0,438	-0,289
540,521	21,285	-0,564	-0,360
541,535	1,503	-0,572	-0,323
542,550	16,540	-0,180	0,111
543,565	-65,063	-0,251	0,079
544,579	-200,000	-0,072	-0,464
545,594	-128,645	-0,595	-0,065
546,608	457,565	-0,245	-0,430
547,623	129,450	-0,719	-0,723
548,638	9,436	-0,540	-0,321
549,652	-200,000	-0,122	-0,620
550,667	204,542	-0,219	-0,268
551,681	63,657	-0,685	-0,541
552,696	-156,862	-0,609	-0,029
553,711	-33,942	-0,628	0,271
554,725	-67,705	-0,372	-0,114
555,740	667,781	-0,493	-1,007
556,754	429,878	-0,277	-0,473
557,769	-103,085	-0,407	-0,075
558,783	447,023	-0,341	-0,592
559,798	-31,324	-0,462	-0,204
560,813	31,361	-0,664	-0,448
561,827	63,898	-0,303	-0,239
562,842	86,194	-0,536	-0,464
563,856	-147,618	-0,880	0,057
564,871	150,158	-0,645	-0,689
565,886	87,167	-0,474	-0,412
566,900	-57,093	-0,186	-0,064
567,915	78,417	-0,486	-0,408
568,929	-21,339	-0,549	-0,263
569,944	655,157	-0,306	-0,621
570,959	371,256	-0,349	-0,559
571,973	15,545	-0,576	-0,355
572,988	159,050	-0,174	-0,190
574,002	311,576	-0,365	-0,540
575,017	150,665	-0,090	-0,096
576,032	15,716	-0,418	-0,258
577,046	249,888	-0,520	-0,695
578,061	43,688	-0,918	-0,660
579,075	99,114	-0,703	-0,638
580,090	228,614	-0,484	-0,620
581,105	700,000	-0,220	-0,518
582,119	37,789	-0,481	-0,335
583,134	0,489	-0,570	-0,319
584,148	113,904	-0,364	0,348
585,163	-38,458	-0,621	0,257
586,178	12,402	-0,835	-0,504
587,192	-38,333	-0,680	-0,282
588,207	-145,626	-0,469	-0,033
589,221	267,429	-0,402	-0,553
590,236	351,792	-0,502	-0,782
591,251	-114,646	-0,599	-0,089
592,265	234,971	-0,481	-0,624
593,280	-64,546	-0,619	-0,196
594,294	-107,453	-0,214	-0,036
595,309	-80,380	-0,414	0,108
596,324	-58,104	-0,901	-0,307
597,338	49,466	-0,215	0,158
598,353	157,551	-0,261	0,284
599,367	-74,440	-0,466	0,131
600,382	190,913	-0,268	-0,317
601,396	-59,265	-0,712	-0,239
602,411	700,000	-0,109	-0,321
603,426	246,066	-0,393	0,521
604,440	-27,194	-0,253	-0,115
605,455	-159,938	-0,761	0,032
606,469	394,605	-0,296	-0,485
607,484	33,363	-0,430	-0,293
608,499	700,000	-0,172	-0,462
609,513	-67,003	-0,127	-0,039
610,528	10,680	-0,211	-0,126
611,542	-150,779	-0,550	0,032
612,557	-44,712	-0,224	0,087
613,572	-98,936	-0,725	-0,143
614,586	-123,202	-0,648	0,081
615,601	164,652	-0,126	-0,139
616,615	700,000	-0,033	-0,076
617,630	-1,460	-0,707	0,390
618,645	-137,803	-0,942	-0,082
619,659	-11,247	-0,516	-0,266
620,674	32,543	-0,271	-0,183
621,688	-25,517	-0,722	-0,333
622,703	-20,786	-0,814	0,390
623,718	-200,000	-0,028	-0,099
624,732	-200,000	-0,127	-0,566
625,747	34,870	-0,422	-0,289
626,761	-139,591	-0,260	0,021
627,776	-91,508	-0,454	-0,101
628,791	700,000	0,133	-0,304
629,805	138,058	-0,151	-0,155
630,820	-72,197	-0,331	0,096
631,834	150,025	-0,361	-0,384
632,849	-18,318	-0,258	-0,126
633,864	295,822	-0,351	-0,504
634,878	-117,948	-0,860	0,119
635,893	184,799	-0,235	-0,274
636,907	36,308	-0,462	-0,318
637,922	190,269	-0,492	-0,580
638,936	124,019	-0,391	-0,385
639,951	222,513	-0,450	-0,568
640,966	-62,152	-0,474	0,154
641,980	700,000	0,073	0,228
642,995	-61,390	-0,137	-0,045
644,009	272,033	-0,661	-0,914
645,024	345,677	-0,218	-0,336
646,039	80,688	-0,452	-0,381
647,053	397,813	-0,372	0,611
648,068	-36,730	-0,304	-0,127
649,082	373,917	-0,286	-0,456
650,097	-47,474	-0,697	-0,264
651,112	-200,000	-0,160	-0,552
652,126	-200,000	-0,120	-0,617
653,141	208,655	-0,158	-0,193
654,155	1,475	-0,378	-0,212
655,170	185,877	-0,362	-0,421
656,185	-18,339	-0,642	-0,313
657,199	156,153	-0,428	-0,462
658,214	-73,591	-0,688	-0,195
659,228	-26,873	-0,547	-0,249
660,243	100,749	-0,400	0,363
661,258	105,186	-0,165	0,152
662,272	0,154	-0,144	-0,080
663,287	446,949	-0,093	-0,161
664,301	-79,737	-0,503	-0,132
665,316	95,606	-0,385	-0,344
666,331	61,815	-0,539	-0,419
667,345	-60,803	-0,709	0,233
668,360	700,000	-0,139	0,319
669,374	-101,780	-0,729	0,137
670,389	-175,037	-0,447	0,010
671,404	-108,978	-0,572	0,095
672,418	605,539	-0,172	-0,336
673,433	700,000	-0,267	-0,596
674,447	-52,853	-0,641	-0,230
675,462	55,336	-0,309	0,233
676,476	-131,708	-0,478	-0,048
677,491	700,000	-0,159	-0,399
678,506	-35,324	-0,569	0,241
679,520	21,544	-0,606	0,384
680,535	53,311	-0,414	-0,309
681,549	330,423	-0,398	-0,600
682,564	-149,676	-0,606	-0,037
683,579	399,337	-0,348	-0,572
684,593	700,000	-0,166	0,397
685,608	50,440	-0,697	-0,514
686,622	-124,122	-0,620	-0,075
687,637	-108,278	-0,458	0,077
688,652	35,939	-0,743	-0,510
689,666	-76,348	-0,298	-0,081
690,681	141,769	0,165	0,171
691,695	139,811	-0,127	0,131
692,710	148,730	-0,344	-0,363
693,725	49,770	-0,282	-0,207
694,739	213,990	-0,461	0,571
695,754	230,761	-0,095	0,122
696,768	700,000	-0,174	-0,587
697,783	209,663	-0,260	-0,319
698,798	-16,269	-0,336	-0,166
699,812	-58,591	-0,315	0,106
700,827	-200,000	-0,050	-0,422
701,841	416,711	-0,387	-0,646
702,856	-146,167	-0,493	0,033
703,871	-40,358	-0,450	0,182
704,885	-76,017	-0,254	0,070
705,900	159,229	-0,086	0,093
706,914	188,916	-0,532	-0,621
707,929	190,156	-0,147	-0,172
708,944	700,000	-0,122	-0,284
709,958	87,775	0,131	-0,113
710,973	348,574	0,027	0,042
711,987	333,264	-0,392	-0,592
713,002	-89,419	-0,546	-0,124
714,017	-50,114	-0,464	-0,171
715,031	700,000	-0,139	-0,460
716,046	70,232	0,175	0,141
717,060	700,000	-0,107	-0,238
718,075	700,000	-0,191	-0,438
719,089	-200,000	-0,314	-1,225
720,104	-200,000	-0,031	-0,360
721,119	-200,000	-0,097	-0,873
722,133	232,234	-0,415	-0,532
723,148	700,000	-0,342	-0,889
724,162	11,175	-0,217	-0,129
725,177	-144,306	-0,414	-0,030
726,192	700,000	-0,282	-0,655
727,206	700,000	-0,163	-0,389
728,221	700,000	-0,137	-0,337
729,235	-200,000	-0,045	-0,817
730,250	700,000	-0,258	0,587
731,265	-102,991	-0,265	-0,049
732,279	-140,527	-0,985	-0,079
733,294	-14,761	-0,462	-0,230
734,308	-98,253	-0,486	0,096
735,323	-200,000	-0,094	-0,453
736,338	-76,710	0,138	-0,038
737,352	-200,000	0,019	0,397
738,367	344,965	-0,190	-0,292
739,381	129,752	-0,615	-0,612
740,396	-159,819	-0,478	-0,020
741,411	700,000	-0,237	-0,766
742,425	700,000	-0,241	-0,710
743,440	51,013	-0,537	0,396
744,454	153,170	-0,265	0,283
745,469	28,214	-0,135	-0,088
746,484	-103,009	-0,520	-0,095
747,498	-128,861	-0,224	0,024
748,513	700,000	-0,281	-0,727
749,527	-30,135	-0,455	-0,201
750,542	277,941	-0,320	-0,445
751,557	-15,695	-0,666	-0,329
752,571	700,000	-0,224	-0,711
753,586	140,777	-0,257	-0,264
754,600	700,000	-0,168	0,418
755,615	-118,181	-0,214	0,029
756,629	-159,356	-0,132	0,006
757,644	-55,528	-0,313	-0,109
758,659	-85,192	-0,383	-0,092
759,673	-39,861	-0,661	-0,267
760,688	-40,795	-0,513	-0,206
761,702	-133,849	-0,237	0,023
762,717	-200,000	-0,055	-0,491
763,732	-5,414	-0,333	0,177
764,746	700,000	-0,122	-0,409
765,761	-200,000	-0,008	-0,156
766,775	135,712	-0,418	-0,423
767,790	112,805	-0,278	0,262
768,805	-157,760	-0,190	-0,009
769,819	157,773	-0,257	-0,276
770,834	320,236	-0,217	0,321
771,848	43,461	-0,191	-0,135
772,863	-200,000	-0,071	0,256
773,878	160,825	-0,106	-0,116
774,892	112,528	-0,119	0,111
775,907	109,061	0,250	0,232
776,921	700,000	-0,252	-0,590
777,936	82,321	-0,263	-0,221
778,951	-200,000	0,044	-0,206
779,965	157,087	-0,440	-0,473
780,980	-117,440	-0,598	-0,083
781,994	-200,000	-0,163	-0,897
783,009	-200,000	-0,019	0,277
784,024	-200,000	-0,030	-0,669
785,038	-28,419	-0,315	-0,140
786,053	579,579	-0,365	-0,696
787,067	-90,056	-0,215	0,048
788,082	69,690	-0,232	-0,186
789,097	-157,985	-0,482	0,022
790,111	-53,816	-0,530	-0,187
791,126	-107,969	-0,316	-0,053
792,140	-200,000	0,026	0,347
793,155	49,834	-0,109	0,080
794,169	-200,000	-0,035	-0,315
795,184	700,000	-0,061	0,163
796,199	-200,000	0,000	0,252
797,213	160,064	-0,586	-0,634
798,228	106,203	-0,149	0,137
799,242	47,627	-0,308	-0,222
800,257	-200,000	-0,194	-0,708
801,272	-86,496	0,066	0,016
802,286	-65,444	-0,548	0,170
803,301	-87,546	-0,274	-0,064
804,315	70,260	-0,068	-0,054
805,330	-61,069	-0,312	-0,101
806,345	-168,061	-0,487	0,014
807,359	294,249	-0,132	-0,187
808,374	-200,000	-0,015	-0,533
809,388	-27,902	-0,353	-0,158
810,403	-92,335	-0,579	-0,125
811,418	147,678	-0,482	-0,503
812,432	-128,578	-0,433	0,047
813,447	137,236	-0,330	-0,334
814,461	700,000	-0,265	-0,642
815,476	-106,350	-0,510	-0,088
816,491	-27,021	-0,530	-0,239
817,505	-108,396	-0,303	-0,050
818,520	64,590	-0,397	-0,310
819,534	-200,000	-0,040	0,379
820,549	605,541	-0,104	0,200
821,564	13,787	-0,145	0,087
822,578	-58,452	-0,798	0,267
823,593	18,886	-0,512	-0,317
824,607	492,660	-0,239	-0,426
825,622	-200,000	-0,030	-0,188
826,637	111,820	-0,418	-0,391
827,651	274,557	-0,260	0,358
828,666	700,000	-0,164	-0,537
829,680	-136,255	-0,343	0,031
830,695	-200,000	-0,042	-0,450
831,709	-30,227	-0,194	-0,085
832,724	-56,885	-0,716	-0,243
833,739	-17,319	-0,415	0,202
834,753	-75,502	-0,464	0,127
835,768	-200,000	0,080	-0,379
836,782	-11,574	0,333	-0,169
837,797	-200,000	-0,047	-0,212
838,812	-113,144	-0,351	0,053
839,826	-131,551	-0,701	0,071
840,841	-74,925	-0,467	-0,129
841,855	-142,246	-0,313	0,024
842,870	-140,713	-0,453	-0,036
843,885	360,230	-0,339	0,527
844,899	-107,084	-0,530	-0,090
845,914	700,000	-0,157	0,398
846,928	700,000	0,178	-0,594
847,943	-159,809	-0,471	0,020
848,958	149,983	-0,356	-0,373
849,972	-107,206	-0,466	0,079
850,987	-89,808	-0,497	0,112
852,001	-163,958	-0,486	-0,017
853,016	60,732	-0,129	0,099
854,031	-200,000	0,048	-0,201
855,045	336,224	-0,041	0,062
856,060	-200,000	0,057	-0,445
857,074	38,055	0,236	-0,162
858,089	296,294	-0,191	-0,271
859,104	-42,748	-0,155	0,061
860,118	328,315	0,141	0,209
861,133	-99,305	-0,206	-0,040
862,147	43,396	-0,246	-0,173
863,162	-93,003	-0,368	-0,079
864,177	-52,960	-0,399	0,141
865,191	-112,839	-0,191	0,029
866,206	-200,000	-0,012	0,318
867,220	268,753	-0,205	-0,278
868,235	-139,874	0,203	-0,016
869,250	-139,377	0,212	-0,017
870,264	-200,000	0,000	-0,667
871,279	21,904	-0,192	-0,120
872,293	150,429	-0,378	-0,396
873,308	110,233	-0,612	-0,568
874,322	22,542	-0,448	-0,282
875,337	-200,000	0,032	-0,769
876,352	700,000	0,109	-0,339
877,366	-12,817	0,161	0,081
878,381	-146,433	-0,461	0,031
879,395	73,899	-0,596	0,482
880,410	113,758	-0,174	0,163
881,425	-168,743	-0,460	-0,013
882,439	5,813	-0,852	-0,485
883,454	-200,000	-0,066	-1,082
884,468	-126,313	-0,078	-0,009
885,483	385,043	0,098	-0,157
886,498	-55,507	-0,107	-0,037
887,512	-9,689	-0,367	-0,188
888,527	-20,456	-0,474	0,224
889,541	34,189	-0,393	-0,264
890,556	114,433	-0,600	-0,563
891,571	-4,442	-0,553	-0,294
892,585	224,395	-0,218	-0,273
893,600	-39,903	-0,073	-0,029
894,614	-63,866	-0,400	0,125
895,629	700,000	0,104	-0,211
896,644	-42,935	-0,108	0,042
897,658	-14,027	-0,434	0,215
898,673	-148,673	-0,342	-0,021
899,687	208,855	-0,502	-0,607
900,702	17,056	-0,252	0,154
901,717	187,660	-0,233	0,269
902,731	-13,618	-0,320	0,159
903,746	147,451	-0,222	-0,231
904,760	492,284	0,316	0,560
905,775	-200,000	0,007	-0,043
906,790	-16,243	-0,299	-0,146
907,804	700,000	-0,021	-0,059
908,819	359,156	-0,079	0,122
909,833	-39,743	-0,385	0,154
910,848	-148,146	-0,615	-0,039
911,862	-23,722	-0,340	0,156
912,877	700,000	-0,090	-0,256
913,892	382,218	-0,111	-0,176
914,906	122,576	-0,332	-0,320
915,921	-25,775	-0,199	-0,090
916,935	-36,421	-0,405	0,167
917,950	681,547	-0,262	0,527
918,965	373,160	-0,111	0,175
919,979	-153,083	-0,247	-0,013
920,994	-200,000	-0,017	-0,940
922,008	700,000	-0,198	-0,433
923,023	700,000	-0,180	0,449
924,038	166,600	0,144	-0,157
925,052	-200,000	0,045	-0,480
926,067	672,019	-0,025	-0,049
927,081	360,564	-0,082	0,126
928,096	102,664	-0,279	-0,251
929,111	150,771	-0,096	-0,101
930,125	9,860	-0,202	-0,118
931,140	-200,000	-0,036	0,129
932,154	20,895	-0,510	-0,318
933,169	91,542	-0,524	-0,453
934,184	-68,230	-0,588	-0,175
935,198	20,169	-0,440	0,273
936,213	700,000	-0,110	-0,344
937,227	310,948	-0,304	-0,439
938,242	51,120	-0,453	0,330
939,257	700,000	-0,089	0,266
940,271	-92,225	0,303	-0,065
941,286	641,395	-0,132	0,260
942,300	90,126	-0,015	-0,013
943,315	-38,288	-0,432	-0,175
944,330	-200,000	-0,010	0,158
945,344	273,718	0,017	0,023
946,359	-200,000	-0,119	-0,447
947,373	-52,266	-0,400	0,142
948,388	700,000	0,118	-0,377
949,402	66,951	-0,175	0,137
950,417	-130,321	-0,324	-0,033
951,432	-168,499	-0,155	0,004
952,446	-200,000	-0,045	-0,369
953,461	-192,740	-0,303	-0,002
954,475	-83,257	-0,705	0,173
955,490	531,957	-0,234	0,427
956,505	61,206	-0,396	-0,302
957,519	12,039	0,182	-0,107
958,534	206,114	-0,097	0,116
959,548	-200,000	0,042	-0,383
960,563	-200,000	0,082	-0,454
961,578	700,000	0,155	-0,367
962,592	-10,263	-0,580	-0,295
963,607	700,000	-0,190	-0,525
964,621	287,372	-0,249	0,346
965,636	700,000	0,089	-0,294
966,651	-200,000	-0,012	0,044
967,665	-108,851	-0,074	-0,012
968,680	254,431	0,191	-0,252
969,694	-76,123	0,366	-0,098
970,709	649,636	-0,272	-0,536
971,724	700,000	-0,143	-0,469
972,738	-200,000	-0,043	-0,329
973,753	-200,000	-0,119	-0,411
974,767	-200,000	-0,071	-0,404
975,782	-157,010	-0,467	0,022
976,797	256,181	-0,055	0,073
977,811	-200,000	0,014	0,176
978,826	-103,460	-0,221	0,040
979,840	127,352	0,255	0,249
980,855	363,406	0,371	0,573
981,870	32,689	-0,163	-0,108
982,884	577,312	-0,064	0,120
983,899	-200,000	0,027	-0,320
984,913	148,070	-0,171	-0,178
985,928	-36,675	-0,166	0,068
986,942	322,260	0,178	-0,260
987,957	-145,570	-0,436	-0,030
988,972	49,268	-0,427	-0,307
989,986	30,453	-0,243	-0,159
991,001	23,804	-0,106	-0,067
992,015	700,000	-0,112	0,326
993,030	-88,100	-0,370	-0,084
994,045	-200,000	0,046	0,483
995,059	-178,482	0,130	0,002
996,074	168,130	-0,277	0,302
997,088	-200,000	-0,025	0,301
998,103	-200,000	-0,074	0,303
999,118	-121,269	-0,326	-0,041
1000,132	-200,000	-0,119	0,487
1001,147	-68,832	-0,556	-0,164
1002,161	-90,083	-0,372	-0,083
1003,176	-127,534	-0,369	-0,041
1004,191	-200,000	-0,014	-0,073
1005,205	700,000	0,116	-0,295
1006,220	-200,000	0,031	0,307
1007,234	-1,299	-0,450	0,243
1008,249	-200,000	-0,165	0,725
1009,264	18,425	0,128	-0,078
1010,278	12,147	0,082	-0,048
1011,293	171,228	-0,279	0,306
1012,307	-38,228	-0,585	-0,237
1013,322	-125,247	-0,175	-0,020
1014,337	-18,893	-0,158	0,075
1015,351	573,816	-0,170	-0,319
1016,366	-17,719	-0,305	-0,146
1017,380	315,610	-0,258	0,373
1018,395	-200,000	0,076	-0,267
1019,410	154,264	-0,284	-0,299
1020,424	-121,028	-0,217	0,028
1021,439	107,857	-0,182	0,166
1022,453	-9,915	-0,145	0,074
1023,468	-192,011	0,077	-0,001
1024,483	700,000	-0,064	0,150
1025,497	350,057	-0,119	0,180
1026,512	-96,479	-0,247	-0,050
1027,526	-200,000	0,025	0,432
1028,541	-200,000	-0,011	0,373
1029,555	700,000	0,121	-0,270
1030,570	385,454	0,243	-0,384
1031,585	-4,969	-0,248	-0,130
1032,599	700,000	-0,211	0,590
1033,614	454,417	-0,298	-0,507
1034,628	-200,000	0,041	-0,290
1035,643	700,000	-0,087	-0,215
1036,658	68,264	-0,107	0,084
1037,672	-161,108	-0,123	-0,005
1038,687	123,159	-0,046	0,044
1039,701	-200,000	-0,074	-0,334
1040,716	2,206	-0,310	-0,171
1041,731	265,679	-0,074	-0,099
1042,745	-200,000	0,024	0,583
1043,760	-23,551	-0,151	0,069
1044,774	-200,000	-0,001	-0,307
1045,789	-200,000	-0,015	0,209
1046,804	661,583	-0,192	0,379
1047,818	-200,000	-0,103	-0,494
1048,833	-200,000	-0,065	0,242
1049,847	-200,000	0,090	-0,648
1050,862	11,420	0,081	-0,047
1051,877	-200,000	0,006	0,444
1052,891	-91,571	0,119	-0,026
1053,906	700,000	0,166	-0,524
1054,920	-200,000	-0,023	-0,639
1055,935	-200,000	-0,015	-0,440
1056,950	-200,000	-0,056	-0,712
1057,964	700,000	-0,231	-0,514
1058,979	-133,928	-0,365	0,034
1059,993	-0,197	-0,145	0,078
1061,008	4,706	0,100	0,056
1062,023	-72,082	-0,497	0,140
1063,037	386,426	-0,099	0,157
1064,052	5,938	-0,325	-0,183
1065,066	-52,622	-0,809	0,284
1066,081	182,752	-0,132	0,149
1067,095	28,760	0,132	0,085
1068,110	700,000	-0,308	0,755
1069,125	-200,000	-0,009	-0,142
1070,139	-172,094	-0,183	-0,004
1071,154	256,218	-0,172	0,225
1072,168	-200,000	0,039	-0,142
1073,183	-200,000	0,118	-0,401
1074,198	-200,000	-0,016	-0,345
1075,212	-34,345	-0,285	0,119
1076,227	115,473	-0,230	0,214
1077,241	-69,743	-0,426	-0,123
1078,256	71,953	-0,330	0,262
1079,271	700,000	-0,065	0,147
1080,285	-63,909	-0,458	0,142
1081,300	335,582	-0,430	0,637
1082,314	-19,291	-0,335	-0,158
1083,329	63,315	0,170	0,130
1084,344	-200,000	-0,013	0,360
1085,358	351,429	-0,172	-0,260
1086,373	-200,000	-0,065	0,225
1087,387	39,565	-0,447	-0,305
1088,402	151,106	-0,216	0,224
1089,417	-134,761	0,104	-0,009
1090,431	204,479	-0,350	0,414
1091,446	700,000	-0,105	-0,291
1092,460	-0,776	-0,343	-0,185
1093,475	153,682	-0,254	-0,265
1094,490	-39,050	-0,129	-0,051
1095,504	-2,049	-0,258	-0,138
1096,519	-120,043	-0,185	-0,024
1097,533	-41,763	0,268	-0,104
1098,548	50,817	0,368	-0,265
1099,563	700,000	-0,105	-0,312
1100,577	-78,197	-0,480	-0,125
1101,592	4,187	-0,257	-0,143
1102,606	700,000	-0,147	-0,339
1103,621	-59,334	-0,144	0,047
1104,635	368,960	-0,215	-0,333
1105,650	-108,904	-0,136	0,022
1106,665	40,411	-0,291	-0,199
1107,679	192,466	-0,344	-0,395
1108,694	596,731	-0,167	-0,316
1109,708	14,688	-0,652	0,387
1110,723	98,933	-0,212	0,186
1111,738	-121,410	0,204	-0,026
1112,752	526,720	-0,132	-0,238
1113,767	-96,427	-0,299	-0,060
1114,781	700,000	0,166	0,403
1115,796	-200,000	0,118	-0,402
1116,811	-150,052	-0,254	-0,015
1117,825	700,000	-0,110	0,260
1118,840	-200,000	0,039	-0,321
1119,854	-200,000	-0,046	0,238
1120,869	12,713	-0,497	-0,291
1121,884	-200,000	-0,191	0,648
1122,898	700,000	0,086	0,216
1123,913	129,412	0,082	-0,080
1124,927	-200,000	-0,001	-0,182
1125,942	-117,252	-0,059	-0,008
1126,957	536,123	0,191	0,345
1127,971	-97,860	0,177	-0,034
1128,986	700,000	0,239	-0,484
1130,000	523,340	0,032	0,058
1131,015	-145,337	-0,433	-0,029
1132,030	-200,000	-0,024	-0,888
1133,044	-34,916	0,144	0,060
1134,059	-200,000	-0,096	0,687
1135,073	-200,000	0,042	-0,433
1136,088	591,243	-0,122	0,230
1137,103	700,000	-0,075	-0,219
1138,117	-200,000	-0,047	-0,212
1139,132	295,423	-0,282	-0,393
1140,146	373,717	-0,127	0,197
1141,161	-69,301	-0,104	0,030
1142,176	30,315	-0,130	-0,084
1143,190	83,125	0,171	0,141
1144,205	-200,000	0,074	-0,465
1145,219	601,653	0,249	-0,472
1146,234	243,402	0,443	0,565
1147,248	-200,000	-0,040	-0,245
1148,263	-200,000	-0,020	-0,282
1149,278	527,014	-0,268	-0,482
1150,292	-152,199	-0,333	0,018
1151,307	169,912	0,104	0,113
1152,321	700,000	-0,089	0,207
1153,336	700,000	0,022	0,072
1154,351	-121,388	0,446	0,056
1155,365	156,039	0,572	-0,599
1156,380	58,434	0,141	0,105
1157,394	-200,000	-0,059	-0,488
1158,409	-56,641	-0,172	-0,058
1159,424	700,000	-0,264	0,548
1160,438	-200,000	-0,001	0,182
1161,453	700,000	-0,119	-0,253
1162,467	116,361	-0,335	0,312
1163,482	136,235	-0,124	0,122
1164,497	299,569	-0,196	0,275
1165,511	88,991	-0,206	-0,174
1166,526	33,458	-0,372	0,245
1167,540	78,403	-0,273	-0,221
1168,555	-93,185	-0,329	-0,069
1169,570	480,154	-0,090	-0,155
1170,584	700,000	0,101	0,242
1171,599	-200,000	-0,019	-0,174
1172,613	-7,347	0,333	-0,171
1173,628	-18,713	-0,230	0,108
1174,643	-11,382	-0,271	0,135
1175,657	700,000	-0,112	-0,264
1176,672	224,714	-0,145	0,179
1177,686	-115,424	-0,244	-0,035
1178,701	-12,770	-0,111	-0,055
1179,716	-200,000	-0,009	-0,429
1180,730	-200,000	0,014	-0,248
1181,745	-4,834	-0,297	0,155
1182,759	169,930	0,133	-0,144
1183,774	700,000	0,138	0,313
1184,788	522,959	-0,212	0,379
1185,803	-9,698	-0,118	0,059
1186,818	50,656	-0,244	0,175
1187,832	-200,000	0,009	-0,448
1188,847	700,000	-0,119	0,272
1189,861	700,000	-0,090	0,221
1190,876	119,588	0,291	-0,273
1191,891	516,309	0,081	-0,144
1192,905	700,000	-0,217	0,450
1193,920	113,073	0,283	-0,260
1194,934	-200,000	0,017	-0,497
1195,949	-200,000	-0,059	0,332
1196,964	-9,744	-0,364	0,183
1197,978	-114,050	-0,118	0,017
1198,993	-64,550	0,086	-0,026
1200,007	-200,000	-0,009	0,365
1201,022	-41,478	-0,244	-0,095
1202,037	-17,838	-0,328	-0,155
1203,051	136,745	-0,441	0,436
1204,066	14,132	-0,354	0,209
1205,080	-136,786	0,122	-0,011
1206,095	39,657	0,310	0,210
1207,110	-200,000	-0,057	-0,286
1208,124	61,974	-0,644	0,485
1209,139	-74,930	-0,334	-0,090
1210,153	-200,000	-0,092	0,533
1211,168	465,501	-0,056	-0,095
1212,183	-200,000	0,003	0,515
1213,197	700,000	0,092	0,258
1214,212	282,115	-0,286	-0,389
1215,226	-67,393	-0,206	-0,061
1216,241	-200,000	0,078	-0,309
1217,256	184,439	-0,159	-0,178
1218,270	-200,000	0,028	0,153
1219,285	-200,000	-0,107	-0,566
1220,299	-141,967	0,092	0,007
1221,314	62,745	0,276	0,208
1222,328	259,026	-0,015	0,020
1223,343	-188,267	-0,379	0,004
1224,358	-26,880	-0,242	-0,106
1225,372	700,000	0,072	-0,203
1226,387	-35,364	0,069	0,028
1227,401	-132,818	0,152	0,014
1228,416	160,204	-0,180	0,190
1229,431	347,203	-0,064	-0,096
1230,445	700,000	0,160	0,416
1231,460	243,250	0,158	-0,200
1232,474	-200,000	-0,023	0,251
1233,489	34,141	0,098	-0,065
1234,504	700,000	0,137	0,313
1235,518	-138,242	0,250	0,021
1236,533	-174,485	-0,302	0,006
1237,547	139,761	-0,394	-0,392
1238,562	29,027	-0,152	-0,097
1239,577	62,448	0,217	0,163
1240,591	-200,000	0,125	-0,583
1241,606	243,518	-0,119	-0,150
1242,620	15,764	0,139	0,082
1243,635	700,000	0,076	-0,224
1244,650	173,322	-0,194	-0,212
1245,664	647,675	0,029	-0,057
1246,679	36,353	-0,035	-0,023
1247,693	-89,037	-0,283	-0,063
1248,708	92,335	-0,315	0,268
1249,723	-10,233	-0,365	-0,182
1250,737	483,959	0,121	0,209
1251,752	-127,472	0,268	-0,029
1252,766	354,322	0,164	-0,246
1253,781	700,000	0,196	-0,476
1254,796	434,327	0,146	0,240
1255,810	-136,864	0,231	0,020
1256,825	-22,893	0,271	0,123
1257,839	700,000	0,100	-0,275
1258,854	-116,248	0,286	-0,040
1259,868	-43,861	0,328	-0,124
1260,883	700,000	0,154	0,426
1261,898	700,000	-0,151	-0,482
1262,912	-200,000	0,010	-0,363
1263,927	630,973	0,122	-0,234
1264,941	4,429	-0,312	0,172
1265,956	700,000	-0,144	-0,461
1266,971	-87,677	0,122	-0,028
1267,985	117,442	0,210	0,194
1269,000	-200,000	0,048	0,265
1270,014	-106,980	-0,298	0,049
1271,029	700,000	-0,125	0,263
1272,044	365,146	0,122	-0,185
1273,058	-200,000	-0,003	-0,447
1274,073	-200,000	0,013	-0,087
1275,087	-200,000	-0,020	0,128
1276,102	656,561	0,104	0,202
1277,117	700,000	-0,053	-0,119
1278,131	440,642	-0,350	0,578
1279,146	-164,935	-0,124	-0,004
1280,160	-59,710	-0,260	0,083
1281,175	-200,000	-0,173	-0,000
1282,190	375,448	0,197	0,304
1283,204	325,127	0,093	-0,134
1284,219	-127,631	0,221	0,024
1285,233	462,695	0,225	0,380
1286,248	-200,000	0,015	0,085
1287,263	635,302	0,037	-0,070
1288,277	237,045	-0,116	-0,145
1289,292	46,616	-0,263	-0,184
1290,306	-200,000	0,133	0,445
1291,321	-39,241	-0,053	-0,021
1292,336	436,157	-0,123	-0,202
1293,350	-14,311	-0,308	-0,149
1294,365	-200,000	-0,039	-0,257
1295,379	277,510	-0,207	-0,278
1296,394	700,000	-0,214	0,455
1297,409	303,053	-0,031	-0,043
1298,423	272,380	0,082	-0,110
1299,438	165,565	-0,151	-0,161
1300,452	700,000	0,112	-0,355
1301,467	-134,197	-0,160	-0,015
1302,481	185,968	-0,318	-0,357
1303,496	-97,884	-0,476	-0,092
1304,511	-7,380	-0,591	0,300
1305,525	662,680	-0,188	0,367
1306,540	-174,940	-0,141	0,003
1307,554	-200,000	-0,001	-0,436
1308,569	-34,930	0,182	0,074
1309,584	700,000	0,322	0,743
1310,598	-200,000	0,080	0,449
1311,613	-52,082	0,276	0,096
1312,627	700,000	0,126	0,320
1313,642	700,000	-0,083	0,191
1314,657	-73,446	-0,314	-0,086
1315,671	4,034	-0,532	-0,292
1316,686	-92,255	-0,081	0,017
1317,700	-128,040	-0,168	-0,018
1318,715	-33,506	-0,221	0,092
1319,730	-6,277	-0,084	0,043
1320,744	22,877	-0,334	0,205
1321,759	389,191	-0,071	-0,111
1322,773	-41,723	-0,458	-0,176
1323,788	75,993	-0,200	-0,159
1324,803	224,199	-0,047	0,057
1325,817	700,000	-0,082	-0,258
1326,832	79,077	0,114	-0,092
1327,846	-50,103	-0,114	-0,040
1328,861	-175,303	-0,252	0,005
1329,876	700,000	0,092	0,184
1330,890	700,000	0,084	-0,221
1331,905	700,000	-0,063	0,125
1332,919	84,537	-0,268	-0,220
1333,934	131,344	-0,199	0,192
1334,949	158,633	-0,166	0,173
1335,963	66,612	-0,144	-0,110
1336,978	-64,182	0,123	-0,037
1337,992	700,000	0,060	0,190
1339,007	-19,256	-0,216	0,100
1340,021	-69,173	-0,345	0,099
1341,036	-200,000	-0,069	-0,532
1342,051	-81,819	-0,073	0,018
1343,065	-200,000	-0,039	0,224
1344,080	215,463	-0,220	0,262
1345,094	-78,503	-0,401	0,102
1346,109	700,000	-0,184	-0,411
1347,124	306,290	0,137	-0,192
1348,138	-200,000	0,039	0,582
1349,153	-50,073	-0,262	0,093
1350,167	-45,401	-0,420	0,156
