DTS Sentinel unit serial number:	SN409017Multiplexer serial number:	ORYXHardware model number:	OX4Software version number:	ORYX F/W v1,02 Oryx Data Collector v3.7.1.3data status	okinstallation	speulderbos2017nov21differential loss correction	single-endedforward channel	channel 1reverse channel	N/Adate	2018/01/07time	20:21:19forward acquisition time	30,00reverse acquisition time	0,00gamma	498,7988k internal	0,2786k external	0,2786temperature offset calibration	1,0000default loss term (dB/km)	0,3730temperature slope calibration	0,7000multiplexer offset coefficient	1,0000multiplexer slope coefficient	1,0000fibre end	0,00T internal ref (°C)	15,34T ext. ref 1 (°C)	3,12T ext. ref 2 (°C)	1258,77length (m)	temperature (°C)	Stokes	anti-Stokes-747,000	-64,757	0,675	-0,228
-745,985	-87,825	-0,558	-0,140
-744,971	477,473	0,246	0,467
-743,956	167,544	-0,522	-0,621
-742,942	-147,663	0,394	0,027
-741,927	231,297	0,127	-0,175
-740,912	-200,000	0,038	0,360
-739,898	-200,000	-0,093	-0,419
-738,883	-90,243	0,647	0,156
-737,869	-135,305	-0,574	-0,057
-736,854	204,721	0,294	-0,382
-735,839	-74,265	-0,565	0,170
-734,825	138,327	0,428	0,469
-733,810	149,346	0,249	0,282
-732,796	39,906	-0,152	-0,114
-731,781	573,540	-0,095	-0,195
-730,766	21,677	-0,397	0,270
-729,752	19,606	-0,209	-0,140
-728,737	-200,000	0,051	-0,201
-727,723	-106,116	-0,473	0,088
-726,708	-72,123	-0,402	0,124
-725,694	-200,000	0,058	0,308
-724,679	700,000	0,159	0,475
-723,664	355,006	-0,159	0,264
-722,650	700,000	0,058	-0,161
-721,635	564,055	0,254	-0,515
-720,621	273,213	0,145	-0,215
-719,606	-41,368	-0,261	0,112
-718,591	-88,043	0,304	-0,076
-717,577	-200,000	-0,001	0,110
-716,562	35,602	-0,531	-0,389
-715,548	700,000	0,122	0,307
-714,533	-111,598	-0,494	0,083
-713,518	-105,626	-0,100	0,019
-712,504	-131,467	-0,513	-0,056
-711,489	-200,000	-0,118	-0,000
-710,475	700,000	0,177	-0,506
-709,460	36,969	-0,346	0,256
-708,445	646,040	0,223	-0,477
-707,431	700,000	-0,145	0,444
-706,416	-62,295	0,125	-0,043
-705,402	82,429	0,293	0,265
-704,387	37,651	-0,305	0,226
-703,372	-200,000	-0,006	-0,137
-702,358	-82,924	-0,588	-0,157
-701,343	522,842	0,177	0,348
-700,329	-200,000	0,103	-0,467
-699,314	262,836	0,169	-0,245
-698,299	679,557	0,216	-0,471
-697,285	119,284	0,065	-0,067
-696,270	41,547	-0,402	0,303
-695,256	-96,758	0,096	-0,021
-694,241	-96,517	0,133	-0,029
-693,226	700,000	0,021	0,065
-692,212	163,812	0,209	-0,246
-691,197	-27,961	-0,496	-0,239
-690,183	-105,021	-0,674	-0,128
-689,168	-200,000	-0,133	0,975
-688,154	-67,019	0,294	-0,096
-687,139	-46,900	0,062	-0,025
-686,124	-200,000	-0,056	-0,264
-685,110	122,581	-0,279	-0,291
-684,095	104,109	0,013	-0,013
-683,081	-92,052	-0,303	-0,071
-682,066	237,425	-0,112	0,156
-681,051	-45,118	-0,784	-0,324
-680,037	609,067	-0,149	0,312
-679,022	107,967	-0,140	0,140
-678,008	700,000	-0,108	-0,341
-676,993	700,000	0,148	0,374
-675,978	700,000	-0,108	-0,321
-674,964	227,103	-0,274	0,372
-673,949	630,636	0,125	-0,264
-672,935	-7,066	0,286	-0,162
-671,920	49,575	0,068	-0,053
-670,905	-45,639	-0,419	0,172
-669,891	5,266	0,294	0,181
-668,876	-200,000	0,107	-0,578
-667,862	71,733	0,207	-0,179
-666,847	-101,863	-0,453	0,091
-665,832	131,521	-0,362	0,388
-664,818	-57,534	-0,609	-0,222
-663,803	700,000	0,200	-0,601
-662,789	-200,000	-0,019	0,248
-661,774	-200,000	0,007	0,117
-660,759	-100,075	-0,030	0,006
-659,745	700,000	-0,075	0,254
-658,730	82,792	-0,334	0,303
-657,716	0,950	-0,397	0,237
-656,701	56,955	0,553	-0,448
-655,686	17,429	-0,047	-0,031
-654,672	-200,000	0,007	0,185
-653,657	12,348	0,138	-0,089
-652,643	171,078	-0,352	-0,421
-651,628	47,818	0,182	-0,141
-650,613	-23,190	0,113	-0,057
-649,599	-18,472	0,191	0,099
-648,584	-14,722	-0,235	0,126
-647,570	-102,009	0,171	0,034
-646,555	-115,220	-0,404	0,063
-645,541	153,259	-0,279	0,319
-644,526	-94,495	-0,244	-0,055
-643,511	-118,561	0,686	-0,100
-642,497	86,617	-0,334	-0,307
-641,482	15,379	0,420	0,274
-640,468	-99,643	0,586	-0,122
-639,453	700,000	-0,210	-0,498
-638,438	65,978	-0,108	0,091
-637,424	-83,890	0,403	-0,106
-636,409	-73,803	-0,274	-0,082
-635,395	-200,000	-0,002	0,277
-634,380	700,000	-0,141	0,491
-633,365	209,481	-0,091	0,119
-632,351	-41,397	0,526	0,225
-631,336	19,108	-0,101	-0,067
-630,322	700,000	0,128	-0,378
-629,307	136,226	-0,290	-0,315
-628,292	-200,000	-0,029	-0,229
-627,278	356,718	0,155	-0,257
-626,263	-103,267	0,451	-0,088
-625,249	-46,396	-0,308	0,125
-624,234	38,827	0,113	-0,084
-623,219	82,467	-0,341	0,308
-622,205	344,746	0,161	0,263
-621,190	26,801	-0,206	-0,143
-620,176	-57,400	-0,492	0,179
-619,161	82,944	-0,253	0,228
-618,146	700,000	0,080	0,198
-617,132	-69,492	0,162	-0,051
-616,117	196,092	-0,062	-0,079
-615,103	59,429	-0,183	0,150
-614,088	-123,005	0,285	0,038
-613,073	434,424	-0,241	0,436
-612,059	165,355	-0,181	-0,214
-611,044	-122,240	0,177	0,024
-610,030	292,998	-0,338	0,514
-609,015	700,000	-0,237	0,655
-608,001	-38,163	0,171	-0,075
-606,986	-117,549	-0,072	0,011
-605,971	-200,000	0,052	0,327
-604,957	99,340	0,456	0,439
-603,942	-150,759	-0,525	0,033
-602,928	-200,000	0,088	-0,442
-601,913	-52,845	0,246	-0,094
-600,898	113,412	0,221	-0,224
-599,884	-29,423	0,467	0,221
-598,869	-88,156	-0,317	-0,078
-597,855	211,015	-0,376	-0,492
-596,840	-200,000	-0,031	0,370
-595,825	0,036	-0,338	-0,200
-594,811	229,469	-0,120	0,163
-593,796	-133,651	0,295	-0,030
-592,782	700,000	-0,029	0,101
-591,767	-117,846	-0,079	0,012
-590,752	-200,000	0,087	0,329
-589,738	-200,000	0,006	0,342
-588,723	-200,000	0,010	-0,092
-587,709	121,569	-0,232	-0,240
-586,694	-200,000	-0,174	-0,678
-585,679	-200,000	0,062	0,409
-584,665	-200,000	0,138	0,631
-583,650	700,000	0,009	-0,030
-582,636	-33,184	0,200	-0,092
-581,621	-127,200	-0,426	-0,051
-580,606	-190,358	0,245	-0,002
-579,592	700,000	-0,167	0,596
-578,577	-176,111	0,282	0,006
-577,563	150,193	0,181	-0,205
-576,548	331,107	0,426	0,684
-575,533	295,739	-0,146	0,222
-574,519	147,967	-0,481	0,539
-573,504	-35,612	0,341	0,153
-572,490	464,354	0,293	-0,547
-571,475	65,220	-0,342	-0,287
-570,461	700,000	-0,117	0,334
-569,446	-55,218	-0,283	0,105
-568,431	-200,000	-0,084	-0,313
-567,417	-64,971	-0,127	0,042
-566,402	679,827	0,060	0,129
-565,388	251,320	-0,364	-0,515
-564,373	60,621	0,473	0,389
-563,358	700,000	0,178	-0,563
-562,344	438,050	0,041	0,074
-561,329	-182,778	-0,448	0,007
-560,315	-0,146	0,490	-0,289
-559,300	-131,257	-0,251	-0,027
-558,285	102,846	-0,359	-0,349
-557,271	-49,563	0,608	0,239
-556,256	39,930	0,197	0,146
-555,242	260,539	0,160	0,231
-554,227	424,993	-0,043	0,078
-553,212	-200,000	0,076	-0,571
-552,198	15,407	-0,146	0,095
-551,183	-163,451	-0,180	-0,007
-550,169	-112,720	0,273	0,045
-549,154	629,480	-0,467	-0,984
-548,139	-26,536	0,277	-0,134
-547,125	-46,153	-0,445	-0,181
-546,110	204,811	-0,330	0,425
-545,096	700,000	0,082	0,236
-544,081	246,511	0,119	-0,167
-543,066	92,645	0,337	-0,316
-542,052	220,364	-0,214	0,285
-541,037	268,975	0,320	0,467
-540,023	-200,000	-0,008	-0,228
-539,008	700,000	0,043	-0,115
-537,993	-141,677	-0,244	0,020
-536,979	-163,762	-0,425	0,016
-535,964	20,051	-0,332	-0,222
-534,950	-25,973	-0,345	0,168
-533,935	170,545	0,140	-0,166
-532,920	235,380	-0,394	-0,540
-531,906	84,219	-0,210	0,190
-530,891	-35,764	0,500	0,224
-529,877	-88,489	-0,311	0,076
-528,862	369,320	-0,167	-0,282
-527,848	54,922	0,245	0,196
-526,833	282,818	0,519	0,774
-525,818	521,948	-0,321	0,626
-524,804	536,586	-0,149	0,295
-523,789	-17,095	-0,445	-0,232
-522,775	-200,000	0,009	-0,748
-521,760	117,259	-0,061	0,062
-520,745	2,180	-0,397	-0,237
-519,731	-200,000	-0,015	-0,116
-518,716	142,849	-0,209	-0,231
-517,702	524,907	0,019	-0,037
-516,687	700,000	0,231	-0,515
-515,672	-0,179	-0,043	0,026
-514,658	66,074	-0,089	0,075
-513,643	-145,804	-0,356	-0,026
-512,629	-9,543	0,088	-0,049
-511,614	290,469	-0,097	0,147
-510,599	-178,051	-0,529	-0,010
-509,585	229,256	0,358	-0,485
-508,570	-200,000	0,074	0,350
-507,556	-200,000	-0,039	-0,151
-506,541	144,532	-0,122	0,135
-505,526	-113,891	0,284	-0,045
-504,512	23,762	0,560	-0,382
-503,497	70,693	-0,470	0,403
-502,483	-151,927	-0,672	-0,040
-501,468	-200,000	-0,016	-0,075
-500,453	391,400	0,194	-0,335
-499,439	700,000	0,079	-0,218
-498,424	-200,000	-0,066	0,464
-497,410	700,000	0,104	-0,312
-496,395	-183,270	-0,661	0,009
-495,380	-200,000	0,034	-0,565
-494,366	-27,195	-0,161	-0,077
-493,351	33,030	0,123	-0,088
-492,337	212,607	0,247	-0,323
-491,322	300,175	-0,294	0,450
-490,308	-200,000	-0,184	-0,790
-489,293	-126,493	0,652	0,079
-488,278	-112,081	0,282	0,047
-487,264	-113,833	-0,731	0,117
-486,249	-149,850	0,240	0,015
-485,235	-99,501	-0,298	-0,062
-484,220	138,492	0,345	-0,375
-483,205	-97,458	-0,237	-0,051
-482,191	462,193	0,011	0,020
-481,176	223,665	0,040	-0,054
-480,162	356,061	-0,107	-0,177
-479,147	-200,000	-0,072	0,313
-478,132	-162,061	0,101	-0,004
-477,118	171,713	0,085	-0,102
-476,103	430,063	0,165	0,296
-475,089	-113,155	0,307	0,050
-474,074	-21,437	-0,039	0,020
-473,059	160,805	0,283	0,328
-472,045	-200,000	0,057	-0,357
-471,030	66,940	0,210	-0,177
-470,016	40,466	0,225	0,168
-469,001	-117,909	0,375	0,055
-467,986	-114,132	-0,261	-0,041
-466,972	-200,000	-0,021	-0,257
-465,957	700,000	-0,168	-0,415
-464,943	-98,921	0,103	0,021
-463,928	-200,000	0,077	-0,296
-462,913	700,000	0,203	-0,686
-461,899	-17,599	-0,173	0,089
-460,884	-52,734	-0,195	0,074
-459,870	180,673	-0,086	0,104
-458,855	-52,312	-0,032	-0,012
-457,840	78,290	0,255	-0,225
-456,826	-200,000	-0,017	-0,182
-455,811	255,642	0,107	-0,153
-454,797	-57,343	0,537	-0,194
-453,782	-7,216	-0,372	0,208
-452,768	98,448	-0,119	0,113
-451,753	-200,000	-0,002	0,152
-450,738	-115,792	-0,581	0,089
-449,724	-200,000	-0,096	-0,384
-448,709	-38,041	-0,262	0,115
-447,695	-200,000	-0,030	0,388
-446,680	-40,283	0,330	-0,141
-445,665	147,963	-0,171	0,190
-444,651	-200,000	-0,032	0,223
-443,636	5,492	0,369	0,225
-442,622	700,000	0,155	-0,380
-441,607	-127,504	0,511	0,061
-440,592	77,371	0,490	0,430
-439,578	300,375	-0,071	-0,109
-438,563	-117,489	0,288	0,043
-437,549	552,750	-0,146	-0,291
-436,534	-30,042	0,402	0,188
-435,519	-112,285	-0,752	-0,123
-434,505	90,948	-0,351	0,325
-433,490	-72,868	0,696	0,210
-432,476	700,000	0,162	0,382
-431,461	642,853	-0,063	-0,133
-430,446	297,379	-0,284	0,432
-429,432	-200,000	0,061	0,251
-428,417	-52,095	-0,104	-0,040
-427,403	-140,375	0,021	-0,002
-426,388	700,000	-0,145	0,473
-425,373	-40,562	0,468	-0,200
-424,359	396,089	-0,041	-0,070
-423,344	-26,413	0,525	0,253
-422,330	484,994	-0,240	-0,453
-421,315	-21,663	0,288	-0,144
-420,300	260,337	-0,116	0,166
-419,286	-200,000	-0,027	-0,313
-418,271	10,773	0,245	0,154
-417,257	-200,000	0,043	-0,183
-416,242	63,141	0,329	0,272
-415,228	-99,199	-0,459	-0,095
-414,213	-36,227	-0,410	0,182
-413,198	-85,771	0,306	0,078
-412,184	499,111	0,123	0,235
-411,169	218,623	0,313	0,414
-410,155	372,125	-0,120	0,203
-409,140	421,870	-0,129	0,229
-408,125	72,146	-0,333	0,286
-407,111	0,501	0,281	-0,165
-406,096	30,445	-0,622	-0,438
-405,082	9,096	0,315	-0,196
-404,067	66,299	0,244	-0,205
-403,052	700,000	0,071	-0,175
-402,038	213,178	-0,148	-0,193
-401,023	-41,929	-0,714	0,300
-400,009	-2,808	0,217	-0,125
-398,994	42,692	0,465	0,349
-397,979	34,278	-0,235	0,169
-396,965	-64,263	0,348	0,116
-395,950	-125,488	0,077	0,010
-394,936	700,000	-0,130	-0,318
-393,921	-145,918	0,180	-0,013
-392,906	19,058	0,383	-0,253
-391,892	50,539	-0,097	0,075
-390,877	45,612	-0,146	0,111
-389,863	-17,658	-0,421	-0,218
-388,848	-35,968	0,448	0,199
-387,833	-105,918	-0,510	-0,094
-386,819	54,383	0,120	0,095
-385,804	-146,257	-0,199	0,014
-384,790	-200,000	0,099	0,476
-383,775	59,141	0,365	-0,296
-382,760	-48,868	-0,078	0,031
-381,746	-200,000	0,111	0,410
-380,731	334,127	-0,183	0,292
-379,717	-97,755	-0,397	0,084
-378,702	291,986	0,313	-0,471
-377,687	-200,000	0,061	-0,594
-376,673	350,370	0,199	-0,326
-375,658	700,000	-0,094	-0,269
-374,644	-200,000	-0,047	-0,683
-373,629	185,432	0,180	-0,221
-372,615	-42,766	-0,192	-0,080
-371,600	-200,000	0,041	-0,852
-370,585	-91,934	0,149	-0,035
-369,571	-3,376	0,418	-0,239
-368,556	132,612	0,439	0,467
-367,542	-200,000	-0,016	0,119
-366,527	-3,328	-0,152	0,087
-365,512	162,884	-0,152	0,177
-364,498	-200,000	-0,073	-0,506
-363,483	-200,000	-0,014	0,164
-362,469	311,775	-0,372	0,576
-361,454	-76,383	-0,519	-0,150
-360,439	14,042	-0,319	0,204
-359,425	-17,449	-0,465	0,240
-358,410	-29,043	-0,261	-0,123
-357,396	394,080	0,065	-0,112
-356,381	580,066	0,296	-0,600
-355,366	293,901	-0,118	0,177
-354,352	-15,080	0,181	-0,095
-353,337	700,000	0,047	0,127
-352,323	-3,315	0,097	0,056
-351,308	-200,000	0,072	0,416
-350,293	-15,336	-0,112	0,059
-349,279	-200,000	-0,038	0,439
-348,264	311,288	-0,198	-0,306
-347,250	-156,538	0,250	0,013
-346,235	296,612	0,298	0,451
-345,220	-95,829	0,598	0,131
-344,206	27,239	0,214	0,148
-343,191	19,758	-0,285	0,189
-342,177	700,000	0,122	0,279
-341,162	71,033	0,344	-0,293
-340,147	311,248	0,200	-0,309
-339,133	-34,932	-0,473	-0,212
-338,118	335,606	-0,113	-0,180
-337,104	33,713	-0,366	-0,262
-336,089	271,611	0,017	0,025
-335,075	-200,000	-0,050	0,336
-334,060	-22,853	-0,373	-0,185
-333,045	561,016	0,020	-0,039
-332,031	19,449	-0,398	0,263
-331,016	700,000	-0,126	-0,369
-330,002	-200,000	-0,064	0,439
-328,987	-200,000	0,030	0,378
-327,972	-129,685	-0,096	-0,011
-326,958	-200,000	0,123	-0,541
-325,943	203,695	0,276	-0,352
-324,929	-200,000	0,039	-0,177
-323,914	-200,000	0,011	0,205
-322,899	700,000	0,045	-0,134
-321,885	700,000	-0,056	0,160
-320,870	-154,477	0,215	-0,012
-319,856	135,741	0,147	0,157
-318,841	-115,906	-0,327	-0,050
-317,826	-200,000	-0,010	0,395
-316,812	-200,000	0,053	-0,265
-315,797	-55,869	-0,612	0,224
-314,783	700,000	-0,143	-0,496
-313,768	-7,469	-0,217	-0,120
-312,753	700,000	0,097	-0,251
-311,739	316,766	0,274	0,426
-310,724	-78,766	0,330	0,092
-309,710	700,000	0,093	-0,234
-308,695	10,674	0,332	0,208
-307,680	-31,637	-0,292	0,134
-306,666	40,125	0,590	-0,436
-305,651	82,029	-0,350	-0,312
-304,637	-200,000	-0,058	-0,354
-303,622	-77,678	0,228	-0,064
-302,607	-200,000	-0,023	-0,360
-301,593	-63,287	-0,316	-0,106
-300,578	-58,989	0,156	0,055
-299,564	-92,921	-0,324	0,074
-298,549	-65,645	0,567	0,186
-297,535	-200,000	-0,094	0,875
-296,520	-112,661	-0,596	0,097
-295,505	-82,526	0,197	-0,052
-294,491	88,992	0,368	-0,336
-293,476	269,614	0,298	0,431
-292,462	79,586	-0,225	0,198
-291,447	-200,000	0,091	0,337
-290,432	-114,706	0,219	0,034
-289,418	-125,389	-0,294	0,036
-288,403	-200,000	0,009	0,300
-287,389	-195,238	-0,119	-0,001
-286,374	-24,921	-0,146	0,071
-285,359	14,796	-0,163	-0,104
-284,345	-200,000	0,060	-0,412
-283,330	22,263	0,330	0,221
-282,316	-200,000	0,003	0,632
-281,301	700,000	-0,117	0,275
-280,286	700,000	0,067	-0,185
-279,272	27,232	-0,122	-0,084
-278,257	700,000	0,089	-0,225
-277,243	-200,000	0,065	0,421
-276,228	528,762	0,130	-0,253
-275,213	-71,075	0,329	0,101
-274,199	-123,634	-0,462	0,060
-273,184	-200,000	0,009	-0,637
-272,170	-152,946	-0,310	-0,018
-271,155	-166,258	0,428	-0,015
-270,140	101,618	-0,395	-0,379
-269,126	231,010	0,301	-0,406
-268,111	-128,256	0,174	-0,020
-267,097	698,443	0,112	0,244
-266,082	-109,633	-0,755	0,129
-265,067	294,381	-0,143	-0,216
-264,053	-200,000	-0,033	-0,381
-263,038	202,146	0,332	0,421
-262,024	-200,000	0,007	0,494
-261,009	-42,764	0,466	-0,194
-259,994	-71,001	0,453	0,139
-258,980	-162,819	0,288	-0,011
-257,965	-148,119	0,762	-0,051
-256,951	299,780	0,284	-0,431
-255,936	-128,338	0,292	0,034
-254,922	32,216	0,193	-0,137
-253,907	328,530	-0,088	0,139
-252,892	-200,000	0,037	0,704
-251,878	700,000	0,248	-0,554
-250,863	293,893	0,194	0,291
-249,849	49,188	0,211	0,162
-248,834	224,832	0,136	-0,181
-247,819	56,373	-0,287	-0,228
-246,805	-200,000	-0,023	-0,385
-245,790	38,536	-0,199	-0,145
-244,776	107,858	-0,433	-0,424
-243,761	351,502	0,156	-0,254
-242,746	-131,480	-0,326	0,035
-241,732	186,303	0,155	-0,189
-240,717	157,884	-0,236	0,269
-239,703	-103,527	-0,701	0,134
-238,688	-107,744	0,482	-0,086
-237,673	100,169	-0,156	0,149
-236,659	466,587	0,449	-0,828
-235,644	-200,000	0,043	-0,190
-234,630	25,716	0,502	0,342
-233,615	700,000	-0,160	0,523
-232,600	22,945	0,185	0,124
-231,586	163,237	-0,184	-0,212
-230,571	253,060	0,332	0,466
-229,557	-46,582	0,102	0,041
-228,542	111,068	-0,416	0,410
-227,527	-200,000	-0,033	-0,242
-226,513	13,085	-0,398	-0,252
-225,498	455,804	0,292	-0,532
-224,484	-200,000	-0,101	0,389
-223,469	-200,000	0,015	0,084
-222,454	-168,996	-0,155	-0,005
-221,440	65,902	-0,130	0,108
-220,425	322,846	0,164	0,256
-219,411	231,049	-0,126	-0,169
-218,396	11,392	0,335	-0,210
-217,382	700,000	-0,074	-0,257
-216,367	131,298	-0,533	-0,561
-215,352	-99,036	0,548	-0,113
-214,338	700,000	-0,238	-0,542
-213,323	-78,706	0,441	-0,122
-212,309	71,000	-0,102	0,087
-211,294	261,213	0,219	-0,311
-210,279	-89,256	0,331	-0,079
-209,265	119,929	-0,443	0,450
-208,250	-200,000	0,025	-0,576
-207,236	-130,428	-0,299	-0,033
-206,221	-200,000	-0,074	0,464
-205,206	353,410	-0,086	-0,140
-204,192	340,531	0,288	0,461
-203,177	-200,000	0,052	0,522
-202,163	-200,000	-0,066	0,466
-201,148	700,000	0,075	0,189
-200,133	700,000	-0,116	-0,268
-199,119	-53,522	-0,134	0,050
-198,104	-20,033	0,200	0,101
-197,090	-92,015	0,494	0,114
-196,075	-125,473	-0,597	-0,074
-195,060	22,264	-0,183	-0,122
-194,046	700,000	0,133	0,433
-193,031	-75,974	0,515	-0,148
-192,017	146,188	0,260	0,285
-191,002	700,000	0,068	-0,153
-189,987	-128,670	-0,489	-0,056
-188,973	-200,000	-0,159	0,575
-187,958	-27,788	-0,193	0,091
-186,944	351,375	-0,197	-0,321
-185,929	-108,455	-0,131	-0,023
-184,914	154,003	0,196	-0,220
-183,900	-76,893	-0,508	0,144
-182,885	-68,473	-0,409	-0,129
-181,871	700,000	0,122	-0,278
-180,856	-22,136	0,330	0,163
-179,842	-94,333	-0,325	0,072
-178,827	-200,000	-0,008	0,299
-177,812	-200,000	-0,019	-0,228
-176,798	-77,779	0,293	0,082
-175,783	-59,671	0,254	-0,089
-174,769	557,724	-0,172	0,341
-173,754	-126,255	0,703	-0,085
-172,739	265,521	0,083	-0,118
-171,725	-67,016	0,489	0,157
-170,710	529,321	-0,156	-0,301
-169,696	-76,468	0,084	-0,024
-168,681	324,138	-0,355	-0,556
-167,666	67,426	0,413	0,345
-166,652	-141,783	0,434	-0,035
-165,637	32,401	-0,654	-0,461
-164,623	-26,365	-0,500	0,239
-163,608	-99,891	0,366	0,074
-162,593	187,709	0,181	0,221
-161,579	0,991	-0,347	0,203
-160,564	629,294	0,159	0,330
-159,550	306,689	-0,236	0,361
-158,535	-8,498	0,447	0,245
-157,520	485,773	-0,319	0,597
-156,506	5,504	-0,415	-0,250
-155,491	168,130	0,044	0,051
-154,477	183,955	0,161	0,194
-153,462	-103,974	-0,492	0,093
-152,447	621,771	-0,130	-0,269
-151,433	60,514	0,345	-0,279
-150,418	129,208	0,353	-0,368
-149,404	381,683	0,196	0,329
-148,389	221,043	-0,315	0,414
-147,374	327,471	0,201	0,316
-146,360	559,802	-0,286	0,567
-145,345	-15,921	0,277	0,144
-144,331	-150,295	0,263	0,016
-143,316	-49,568	-0,416	0,161
-142,302	73,153	-0,313	0,267
-141,287	-59,027	0,420	0,147
-140,272	700,000	0,032	0,106
-139,258	700,000	-0,163	0,404
-138,243	-110,454	0,661	-0,111
-137,229	8,267	-0,362	-0,222
-136,214	94,854	0,168	0,156
-135,199	140,121	0,037	-0,040
-134,185	-17,800	0,289	0,147
-133,170	700,000	-0,103	0,232
-132,156	700,000	0,108	0,307
-131,141	-14,862	-0,331	0,173
-130,126	224,251	0,154	0,203
-129,112	-115,316	0,187	0,029
-128,097	196,208	-0,223	-0,277
-127,083	-200,000	-0,039	0,262
-126,068	-146,821	-0,447	-0,031
-125,053	-64,779	0,341	0,112
-124,039	-40,793	0,689	-0,290
-123,024	-122,604	-0,018	0,002
-122,010	325,154	0,298	-0,466
-120,995	37,042	-0,455	-0,328
-119,980	-115,680	-0,242	0,037
-118,966	280,482	0,178	-0,260
-117,951	-139,256	-0,181	-0,016
-116,937	253,104	0,382	-0,533
-115,922	25,997	-0,313	-0,213
-114,907	-200,000	0,085	0,348
-113,893	700,000	0,157	-0,431
-112,878	-30,265	-0,176	-0,081
-111,864	61,722	0,245	0,199
-110,849	131,527	0,304	0,319
-109,834	278,023	-0,089	0,130
-108,820	185,976	0,423	0,514
-107,805	58,406	0,410	0,328
-106,791	-15,053	0,119	0,062
-105,776	98,584	0,383	-0,361
-104,761	-65,482	-0,344	-0,112
-103,747	54,288	0,115	-0,090
-102,732	86,765	-0,404	-0,364
-101,718	-29,324	-0,522	0,243
-100,703	-113,807	0,538	0,085
-99,689	-45,453	-0,817	0,329
-98,674	333,294	0,141	0,223
-97,659	-200,000	-0,047	0,247
-96,645	-200,000	0,003	-0,164
-95,630	-20,408	0,326	-0,163
-94,616	336,523	0,097	-0,155
-93,601	700,000	0,169	0,371
-92,586	126,470	-0,319	0,329
-91,572	-47,374	0,437	0,173
-90,557	563,474	0,160	-0,317
-89,543	700,000	-0,113	-0,407
-88,528	52,943	-0,168	0,131
-87,513	-200,000	0,011	0,295
-86,499	427,580	0,167	-0,295
-85,484	-112,021	-0,727	0,118
-84,470	567,074	0,191	-0,378
-83,455	-200,000	-0,026	-0,176
-82,440	-58,759	0,061	0,021
-81,426	-32,782	-0,146	0,066
-80,411	-31,635	0,323	0,147
-79,397	700,000	-0,120	0,332
-78,382	128,547	0,199	-0,207
-77,367	-200,000	-0,006	-0,111
-76,353	700,000	-0,147	-0,330
-75,338	700,000	-0,072	-0,236
-74,324	-110,102	0,235	-0,040
-73,309	700,000	-0,092	0,260
-72,294	-200,000	0,049	0,427
-71,280	311,336	-0,074	0,113
-70,265	-200,000	-0,064	-0,727
-69,251	120,342	0,346	-0,350
-68,236	-21,792	0,134	-0,066
-67,221	-77,022	0,031	-0,009
-66,207	-42,442	0,381	-0,158
-65,192	453,110	-0,299	-0,541
-64,178	700,000	0,163	0,430
-63,163	-129,021	0,513	0,058
-62,149	-200,000	0,006	0,310
-61,134	-200,000	-0,197	1,195
-60,119	499,621	-1,882	-3,546
-59,105	99,632	1,375	1,296
-58,090	-96,205	0,858	0,184
-57,076	700,000	2,653	6,831
-56,061	85,617	59,935	53,604
-55,046	431,145	1147,496	2029,922
-54,032	302,329	2185,762	3299,633
-53,017	99,336	2003,788	1886,065
-52,003	30,824	1752,024	1219,411
-50,988	22,199	1551,877	1029,530
-49,973	17,500	1481,620	956,406
-48,959	16,011	1464,029	936,702
-47,944	15,619	1458,437	930,900
-46,930	15,408	1456,333	928,349
-45,915	15,490	1452,230	926,149
-44,900	15,466	1449,002	923,924
-43,886	15,383	1447,027	922,169
-42,871	15,322	1445,498	920,819
-41,857	15,312	1443,623	919,537
-40,842	15,176	1442,167	917,821
-39,827	15,418	1440,090	917,796
-38,813	15,445	1438,542	916,919
-37,798	15,398	1437,609	916,032
-36,784	15,430	1435,448	914,792
-35,769	15,533	1434,414	914,663
-34,754	15,659	1431,924	913,727
-33,740	15,413	1430,882	911,682
-32,725	15,432	1429,833	911,083
-31,711	15,439	1427,828	909,803
-30,696	15,240	1427,615	908,550
-29,681	15,413	1425,560	908,150
-28,667	15,529	1423,606	907,495
-27,652	15,326	1423,114	906,044
-26,638	15,358	1421,946	905,438
-25,623	15,233	1420,632	903,891
-24,609	15,418	1418,729	903,643
-23,594	15,326	1418,305	902,839
-22,579	15,138	1417,509	901,278
-21,565	15,271	1416,588	901,379
-20,550	15,327	1414,950	900,599
-19,536	15,408	1413,293	899,950
-18,521	15,299	1412,272	898,672
-17,506	15,203	1411,982	897,937
-16,492	15,114	1410,824	896,686
-15,477	15,294	1409,876	897,014
-14,463	15,272	1408,271	895,842
-13,448	15,410	1406,813	895,617
-12,433	15,300	1406,354	894,702
-11,419	15,212	1405,155	893,429
-10,404	15,396	1403,596	893,388
-9,390	15,156	1403,466	891,986
-8,375	15,466	1400,651	891,820
-7,360	15,270	1400,748	890,799
-6,346	15,210	1399,788	889,831
-5,331	15,293	1398,235	889,250
-4,317	15,186	1398,027	888,514
-3,302	15,110	1396,602	887,167
-2,287	15,052	1396,034	886,464
-1,273	15,000	1396,188	886,251
-0,258	14,547	1397,711	884,763
0,756	11,871	1359,838	848,171
1,771	6,408	1293,906	779,870
2,786	3,249	1265,701	747,423
3,800	2,572	1258,906	740,078
4,815	1,737	1253,005	732,529
5,829	0,896	1250,219	726,796
6,844	0,584	1246,973	723,362
7,859	0,593	1245,124	722,289
8,873	0,703	1242,683	721,358
9,888	0,625	1241,174	720,064
10,902	0,556	1239,402	718,661
11,917	0,528	1236,174	716,612
12,931	0,587	1235,228	716,304
13,946	0,636	1232,740	715,047
14,961	0,535	1232,392	714,324
15,975	0,391	1229,883	712,143
16,990	0,652	1228,033	712,265
18,004	0,724	1226,224	711,514
19,019	0,703	1224,228	710,213
20,034	0,765	1222,118	709,236
21,048	0,577	1221,026	707,672
22,063	0,625	1219,091	706,734
23,077	0,723	1217,250	706,084
24,092	0,652	1216,272	705,144
25,107	0,783	1214,370	704,608
26,121	0,606	1212,844	702,854
27,136	0,643	1209,839	701,243
28,150	0,997	1207,749	701,636
29,165	0,938	1204,916	699,675
30,180	0,991	1202,203	698,300
31,194	1,091	1199,204	696,980
32,209	1,250	1195,155	695,315
33,223	1,239	1191,659	693,187
34,238	1,304	1187,203	690,852
35,253	1,322	1184,940	689,573
36,267	1,394	1182,945	688,699
37,282	1,418	1181,557	687,958
38,296	1,192	1181,032	686,584
39,311	1,402	1179,212	686,440
40,326	1,416	1177,501	685,463
41,340	1,432	1176,140	684,703
42,355	1,394	1175,306	684,001
43,369	1,201	1175,552	683,232
44,384	1,502	1173,885	683,582
45,399	1,441	1172,552	682,487
46,413	1,425	1171,953	682,025
47,428	1,305	1170,567	680,635
48,442	1,401	1168,866	680,038
49,457	1,462	1168,099	679,826
50,472	1,471	1166,268	678,755
51,486	1,629	1165,238	678,823
52,501	1,435	1164,847	677,685
53,515	1,231	1164,210	676,362
54,530	1,421	1162,911	676,417
55,544	1,487	1161,632	675,923
56,559	1,410	1160,382	674,810
57,574	1,172	1160,121	673,555
58,588	1,427	1158,778	673,871
59,603	1,562	1157,734	673,826
60,617	1,414	1156,427	672,367
61,632	1,244	1156,159	671,413
62,647	1,471	1154,503	671,417
63,661	1,437	1153,486	670,633
64,676	1,505	1151,814	669,924
65,690	1,490	1150,500	669,053
66,705	1,487	1149,419	668,371
67,720	1,612	1148,727	668,480
68,734	1,411	1147,769	666,994
69,749	1,469	1146,593	666,526
70,763	1,586	1145,663	666,460
71,778	1,408	1145,746	665,681
72,793	1,565	1143,938	665,281
73,807	1,903	1142,944	666,147
74,822	3,018	1144,290	671,792
75,836	4,228	1145,746	677,928
76,851	4,833	1143,799	679,389
77,866	4,838	1143,471	679,172
78,880	5,029	1142,112	679,159
79,895	4,998	1140,921	678,277
80,909	4,887	1139,781	677,072
81,924	4,760	1138,348	675,624
82,939	4,955	1137,449	675,901
83,953	4,454	1135,758	672,671
84,968	3,204	1131,883	664,909
85,982	2,076	1130,118	658,942
86,997	1,596	1129,124	656,240
88,012	1,782	1128,075	656,398
89,026	2,196	1126,941	657,489
90,041	1,888	1125,319	655,169
91,055	1,782	1124,545	654,224
92,070	2,130	1123,923	655,322
93,084	2,343	1123,479	655,940
94,099	2,223	1122,208	654,643
95,114	2,260	1120,803	653,944
96,128	1,975	1119,858	652,125
97,143	1,742	1117,755	649,862
98,157	1,789	1116,939	649,552
99,172	1,713	1116,474	648,914
100,187	1,637	1115,046	647,721
101,201	1,690	1113,080	646,764
102,216	1,775	1113,023	647,055
103,230	1,661	1111,584	645,694
104,245	1,672	1110,218	644,908
105,260	1,743	1109,306	644,639
106,274	1,472	1108,645	643,065
107,289	1,525	1107,669	642,683
108,303	1,582	1106,178	642,020
109,318	1,721	1104,900	641,829
110,333	1,624	1104,359	641,064
111,347	1,597	1103,158	640,215
112,362	1,594	1101,933	639,454
113,376	1,490	1100,826	638,331
114,391	1,512	1100,614	638,262
115,406	1,630	1098,538	637,518
116,420	1,518	1097,830	636,598
117,435	1,634	1096,384	636,205
118,449	1,573	1094,915	635,058
119,464	1,498	1094,518	634,478
120,479	1,445	1093,664	633,720
121,493	1,484	1092,297	633,051
122,508	1,325	1090,957	631,572
123,522	1,214	1090,039	630,541
124,537	1,262	1088,589	629,863
125,552	1,074	1088,070	628,739
126,566	0,966	1086,995	627,631
127,581	0,705	1085,997	625,928
128,595	0,771	1085,158	625,683
129,610	1,133	1083,161	625,994
130,624	0,739	1083,525	624,529
131,639	0,955	1081,909	624,457
132,654	0,941	1080,795	623,719
133,668	0,907	1080,470	623,351
134,683	0,970	1080,079	623,348
135,697	1,097	1078,345	622,833
136,712	1,055	1077,689	622,243
137,727	1,226	1076,496	622,223
138,741	1,152	1076,212	621,717
139,756	1,274	1075,327	621,669
140,770	1,308	1073,829	620,904
141,785	1,030	1073,954	619,796
142,800	1,211	1073,245	620,091
143,814	1,143	1072,311	619,235
144,829	1,090	1071,852	618,715
145,843	1,059	1070,120	617,550
146,858	1,165	1070,140	617,959
147,873	1,172	1069,049	617,323
148,887	1,176	1068,462	616,959
149,902	1,140	1066,875	615,859
150,916	1,225	1065,455	615,348
151,931	1,098	1065,048	614,560
152,946	1,224	1063,818	614,325
153,960	1,145	1063,566	613,818
154,975	1,327	1061,891	613,555
155,989	1,111	1061,009	612,130
157,004	1,188	1059,991	611,820
158,019	1,021	1059,145	610,618
159,033	0,957	1057,858	609,579
160,048	0,932	1056,641	608,739
161,062	0,819	1055,156	607,390
162,077	0,852	1054,397	607,049
163,092	0,694	1054,080	606,195
164,106	0,902	1053,367	606,585
165,121	0,764	1051,424	604,874
166,135	0,947	1050,447	605,011
167,150	0,956	1049,833	604,654
168,165	1,095	1049,262	604,848
169,179	1,281	1048,227	604,959
170,194	1,189	1047,578	604,180
171,208	1,233	1047,222	604,113
172,223	1,460	1046,078	604,326
173,237	1,703	1044,576	604,391
174,252	1,577	1044,896	604,034
175,267	1,720	1043,609	603,822
176,281	1,727	1042,644	603,256
177,296	1,616	1041,894	602,343
178,310	1,733	1040,705	602,084
179,325	1,600	1040,861	601,610
180,340	1,800	1039,279	601,451
181,354	1,503	1039,141	600,159
182,369	1,494	1038,553	599,746
183,383	1,837	1037,931	600,710
184,398	1,754	1036,915	599,757
185,413	1,960	1036,388	600,227
186,427	1,759	1036,262	599,325
187,442	1,808	1034,452	598,436
188,456	1,643	1034,182	597,593
189,471	1,856	1032,829	597,613
190,486	1,927	1031,415	597,037
191,500	1,993	1030,816	596,916
192,515	1,849	1030,806	596,304
193,529	1,810	1030,780	596,101
194,544	1,850	1029,646	595,567
195,559	2,135	1028,666	596,080
196,573	2,224	1028,477	596,284
197,588	2,327	1028,342	596,574
198,602	2,445	1028,501	597,093
199,617	2,166	1026,964	595,070
200,632	2,057	1026,037	594,070
201,646	2,292	1025,395	594,581
202,661	1,983	1024,773	592,976
203,675	1,990	1024,810	592,991
204,690	1,936	1024,761	592,714
205,705	3,193	1025,192	597,839
206,719	4,646	1026,305	604,129
207,734	4,259	1024,725	601,650
208,748	2,957	1022,638	595,320
209,763	3,354	1022,280	596,623
210,777	3,983	1021,404	598,520
211,792	4,161	1017,734	597,023
212,807	4,088	1013,319	594,112
213,821	4,349	1010,524	593,442
214,836	3,707	1007,704	589,291
215,850	2,725	1005,598	584,262
216,865	2,308	1004,856	582,201
217,880	3,089	1004,501	584,947
218,894	4,886	1004,921	592,022
219,909	5,386	1005,204	594,064
220,923	5,354	1004,399	593,430
221,938	5,671	1003,152	593,864
222,953	5,617	1002,553	593,268
223,967	5,700	1001,626	593,001
224,982	5,522	1001,860	592,427
225,996	5,695	1000,310	592,130
227,011	5,467	999,137	590,536
228,026	4,963	995,697	586,560
229,040	2,904	993,138	577,242
230,055	2,013	991,579	572,939
231,069	1,969	991,341	572,599
232,084	1,952	990,149	571,814
233,099	1,768	989,108	570,483
234,113	2,149	987,280	570,828
235,128	2,350	987,670	571,772
236,142	2,607	986,214	571,857
237,157	2,278	984,989	569,882
238,172	2,089	982,957	567,965
239,186	2,057	981,626	567,042
240,201	2,034	981,332	566,749
241,215	1,912	979,939	565,456
242,230	2,035	977,864	564,682
243,245	2,042	976,848	564,088
244,259	1,958	976,124	563,324
245,274	1,897	974,724	562,254
246,288	1,925	974,468	562,178
247,303	2,064	972,791	561,690
248,317	1,988	972,362	561,127
249,332	1,547	972,208	559,374
250,347	1,777	970,186	559,025
251,361	1,890	969,533	559,031
252,376	1,760	968,757	558,069
253,390	1,684	967,592	557,087
254,405	1,359	966,822	555,413
255,420	1,808	966,399	556,787
256,434	1,830	965,857	556,520
257,449	2,162	963,976	556,619
258,463	2,019	962,974	555,482
259,478	2,066	962,210	555,182
260,493	1,941	961,024	554,007
261,507	1,967	960,515	553,775
262,522	2,115	959,603	553,753
263,536	2,089	958,881	553,211
264,551	2,034	958,048	552,495
265,566	2,040	957,126	551,950
266,580	1,943	956,331	551,104
267,595	1,977	955,719	550,843
268,609	1,880	954,920	549,999
269,624	1,936	954,105	549,698
270,639	2,190	953,292	550,115
271,653	1,854	952,842	548,608
272,668	1,934	951,475	548,073
273,682	1,773	950,588	546,951
274,697	1,906	949,926	547,015
275,712	1,799	949,597	546,405
276,726	1,953	948,018	546,017
277,741	1,966	948,111	546,086
278,755	2,093	947,580	546,204
279,770	1,925	946,435	544,907
280,785	1,980	945,527	544,547
281,799	2,155	943,821	544,158
282,814	2,033	944,035	543,812
283,828	2,016	943,309	543,300
284,843	2,045	942,190	542,726
285,857	1,818	941,594	541,539
286,872	1,984	941,054	541,787
287,887	1,962	940,210	541,189
288,901	1,972	940,173	541,171
289,916	2,190	938,667	541,048
290,930	1,944	937,771	539,625
291,945	2,003	936,989	539,349
292,960	1,903	936,017	538,403
293,974	2,043	936,089	538,909
294,989	2,278	934,833	538,987
296,003	2,367	934,918	539,317
297,018	2,577	934,362	539,709
298,033	2,258	933,170	537,859
299,047	2,050	932,019	536,428
300,062	2,038	931,650	536,138
301,076	2,396	930,882	536,926
302,091	2,342	929,957	536,170
303,106	2,565	929,585	536,709
304,120	3,998	931,770	542,993
305,135	5,523	931,365	548,096
306,149	5,959	931,142	549,465
307,164	5,873	930,527	548,767
308,179	5,535	930,572	547,572
309,193	5,505	929,334	546,704
310,208	5,461	928,369	545,950
311,222	5,641	927,652	546,124
312,237	5,554	927,439	545,661
313,252	5,706	926,570	545,647
314,266	5,802	925,643	545,406
315,281	5,891	924,619	545,079
316,295	5,715	924,657	544,455
317,310	5,298	923,329	542,185
318,325	4,654	921,335	538,740
319,339	3,107	919,334	532,160
320,354	2,284	918,505	528,786
321,368	2,175	917,869	528,008
322,383	2,332	916,463	527,711
323,398	2,144	916,861	527,256
324,412	2,030	916,316	526,516
325,427	2,107	915,911	526,519
326,441	2,209	914,515	526,037
327,456	1,816	914,503	524,639
328,470	2,159	913,602	525,272
329,485	1,983	913,623	524,645
330,500	2,173	913,066	524,949
331,514	2,018	912,568	524,095
332,529	1,920	912,293	523,570
333,543	2,107	911,319	523,622
334,558	2,180	911,489	523,939
335,573	2,873	912,077	526,635
336,587	10,368	869,439	526,549
337,602	57,626	500,637	389,815
338,616	121,373	113,568	112,820
339,631	51,245	15,741	11,897
340,646	65,525	2,179	1,757
341,660	82,278	-0,389	-0,336
342,675	94,432	-0,870	-0,788
343,689	1,016	-1,130	-0,644
344,704	72,711	-0,997	-0,829
345,719	-141,891	-1,108	-0,087
346,733	-33,930	-1,657	-0,724
347,748	-60,003	-1,011	-0,342
348,762	-18,632	-1,206	-0,597
349,777	55,371	-1,076	-0,828
350,792	16,980	-1,271	-0,800
351,806	52,030	-1,155	-0,875
352,821	54,457	-0,979	-0,750
353,835	-98,743	-1,168	-0,235
354,850	117,752	-0,683	-0,670
355,865	38,827	-0,625	-0,444
356,879	-169,971	-1,115	-0,031
357,894	28,635	-1,160	-0,780
358,908	101,222	-1,118	-1,036
359,923	87,943	-1,061	-0,936
360,938	-34,827	-0,670	-0,290
361,952	13,732	-1,250	-0,772
362,967	-30,129	-0,902	-0,407
363,981	287,328	-0,739	-1,066
364,996	-131,143	-1,147	-0,120
366,010	-39,480	-1,404	-0,583
367,025	13,972	-0,796	-0,492
368,040	361,763	-0,664	-1,062
369,054	79,488	-1,148	-0,980
370,069	-43,637	-1,217	-0,486
371,083	-32,114	-1,549	-0,687
372,098	-18,062	-0,519	-0,258
373,113	-46,617	-0,728	-0,283
374,127	-19,452	-0,859	-0,422
375,142	11,636	-1,037	-0,631
376,156	-20,611	-1,613	-0,785
377,171	-7,018	-1,331	-0,717
378,186	-66,917	-0,921	-0,288
379,200	-26,839	-1,225	-0,567
380,215	-29,152	-1,027	-0,466
381,229	-52,441	-1,021	-0,374
382,244	-21,757	-0,957	-0,462
383,259	26,025	-1,337	-0,885
384,273	-115,439	-0,857	-0,127
385,288	-28,621	-0,804	-0,367
386,302	91,320	-0,955	-0,852
387,317	341,967	-0,766	-1,193
388,332	-1,335	-0,913	-0,511
389,346	184,948	-0,864	-1,020
390,361	16,692	-1,110	-0,696
391,375	88,027	-0,932	-0,821
392,390	129,877	-0,880	-0,895
393,405	19,863	-1,102	-0,704
394,419	14,831	-0,998	-0,619
395,434	-56,465	-1,206	-0,423
396,448	75,222	-1,098	-0,920
397,463	17,926	-1,012	-0,639
398,478	80,455	-0,960	-0,821
399,492	-33,223	-0,848	-0,372
400,507	-58,346	-1,283	-0,441
401,521	-60,023	-0,711	-0,240
402,536	-16,836	-1,006	-0,503
403,550	159,226	-0,910	-1,006
404,565	-2,067	-1,140	-0,634
405,580	-14,578	-1,037	-0,528
406,594	54,267	-0,962	-0,735
407,609	75,277	-0,628	-0,526
408,623	285,092	-0,665	-0,953
409,638	-44,472	-0,887	-0,351
410,653	16,040	-0,903	-0,564
411,667	225,734	-0,522	-0,673
412,682	-28,428	-1,417	-0,646
413,696	-139,955	-0,546	-0,045
414,711	157,732	-0,712	-0,783
415,726	-12,435	-0,315	-0,163
416,740	46,367	-1,025	-0,753
417,755	104,689	-0,941	-0,880
418,769	21,794	-1,152	-0,743
419,784	-17,288	-0,641	-0,319
420,799	-134,333	-0,726	-0,070
421,813	108,004	-0,535	-0,506
422,828	65,262	-0,866	-0,694
423,842	179,125	-0,647	-0,752
424,857	-127,373	-0,690	-0,079
425,872	-97,199	-1,210	-0,249
426,886	-173,569	-0,990	-0,023
427,901	-50,235	-1,095	-0,409
428,915	98,013	-0,421	-0,384
429,930	478,527	-0,212	-0,382
430,945	646,822	-0,233	-0,474
431,959	-138,112	-0,714	0,062
432,974	-108,788	-1,074	-0,181
433,988	-58,402	-1,012	-0,347
435,003	293,087	-0,346	-0,501
436,018	88,394	-0,797	-0,701
437,032	198,977	-0,821	-0,998
438,047	-53,189	-0,484	-0,175
439,061	340,690	-0,227	-0,352
440,076	73,482	-0,921	-0,764
441,091	51,736	-0,759	-0,571
442,105	-115,406	-0,589	0,087
443,120	-142,979	-1,090	-0,083
444,134	112,240	-0,720	-0,690
445,149	401,337	-0,185	-0,309
446,163	-24,071	-0,630	-0,297
447,178	-35,841	-0,873	-0,373
448,193	31,365	-1,049	-0,713
449,207	59,819	-0,924	-0,722
450,222	44,803	-0,961	-0,700
451,236	14,527	-0,794	-0,490
452,251	-22,933	-1,059	-0,504
453,266	121,053	-0,723	-0,713
454,280	-2,986	-0,875	-0,482
455,295	4,731	-0,210	-0,122
456,309	361,125	-0,481	-0,765
457,324	-157,660	-0,764	-0,036
458,339	9,487	-0,541	-0,323
459,353	-55,819	-0,614	-0,216
460,368	367,544	-0,324	-0,519
461,382	187,220	-0,309	-0,365
462,397	-50,109	-0,877	-0,327
463,412	77,782	-0,598	-0,504
464,426	-7,723	-0,593	-0,316
465,441	13,059	-0,898	-0,549
466,455	-64,818	-0,589	-0,187
467,470	-35,621	-0,867	-0,371
468,485	30,979	-0,725	-0,491
469,499	-54,516	-0,649	-0,231
470,514	-67,925	-0,800	-0,246
471,528	184,468	-0,500	-0,587
472,543	220,383	-0,620	-0,787
473,558	56,167	-0,723	-0,555
474,572	29,061	-0,812	-0,544
475,587	-118,875	-0,993	-0,137
476,601	-43,559	-0,706	-0,280
477,616	156,402	-0,577	-0,630
478,631	400,109	-0,255	0,423
479,645	77,204	-0,880	-0,739
480,660	118,916	-0,432	-0,422
481,674	76,858	-0,770	-0,646
482,689	408,660	-0,442	-0,742
483,703	-154,714	-0,948	0,049
484,718	131,818	-0,645	-0,656
485,733	-200,000	-0,208	-0,796
486,747	-37,027	-0,517	-0,218
487,762	110,448	-0,552	-0,524
488,776	438,467	-0,479	-0,829
489,791	-12,980	-0,761	-0,390
490,806	80,601	-0,509	-0,433
491,820	212,824	-0,525	-0,656
492,835	700,000	-0,247	-0,577
493,849	312,242	-0,369	-0,549
494,864	-157,001	-0,524	-0,025
495,879	-200,000	-0,033	-0,611
496,893	-69,576	-0,905	-0,272
497,908	49,056	-0,788	-0,584
498,922	56,463	-0,640	-0,491
499,937	700,000	-0,142	-0,460
500,952	45,263	-0,645	-0,469
501,966	-62,408	-0,773	-0,252
502,981	19,008	-0,517	-0,327
503,995	-78,914	-0,387	-0,103
505,010	-88,066	-0,859	-0,202
506,025	60,944	-0,419	-0,328
507,039	505,325	-0,231	-0,423
508,054	700,000	-0,257	-0,893
509,068	411,063	0,092	-0,154
510,083	68,318	-0,728	-0,588
511,098	38,652	-0,637	-0,448
512,112	-136,634	-0,682	0,062
513,127	700,000	-0,398	-1,118
514,141	-26,574	-1,174	-0,540
515,156	56,018	-0,697	-0,533
516,171	-83,443	-0,521	-0,131
517,185	-89,833	-0,672	-0,154
518,200	5,197	-0,537	-0,312
519,214	700,000	-0,296	-0,871
520,229	230,030	-0,395	-0,510
521,243	-43,918	-0,578	-0,228
522,258	-75,105	-0,416	-0,117
523,273	-100,611	-0,915	-0,177
524,287	31,417	-0,746	-0,505
525,302	5,951	-0,306	-0,178
526,316	-126,906	-1,438	-0,165
527,331	-41,382	-0,920	-0,372
528,346	-59,553	-0,268	0,090
529,360	-16,316	-0,919	-0,458
530,375	-88,869	-0,420	-0,097
531,389	31,161	-0,850	-0,574
532,404	-200,000	-0,045	-0,248
533,419	265,074	-0,591	-0,813
534,433	113,161	-0,708	-0,676
535,448	-165,044	-0,592	-0,020
536,462	-49,241	-0,209	-0,078
537,477	196,976	-0,282	-0,340
538,492	61,948	-0,364	-0,285
539,506	-74,066	-0,715	-0,203
540,521	-20,422	-0,662	-0,320
541,535	-126,966	-0,455	-0,052
542,550	-71,294	-0,731	-0,214
543,565	243,672	-0,533	-0,705
544,579	700,000	-0,494	-1,053
545,594	278,463	-0,330	0,464
546,608	64,343	-0,574	-0,455
547,623	14,476	-0,511	-0,313
548,638	-136,758	-0,404	-0,036
549,652	62,189	-0,533	-0,418
550,667	136,155	-0,557	-0,572
551,681	-167,425	-0,824	0,026
552,696	34,342	-0,940	-0,645
553,711	285,789	-0,237	-0,337
554,725	91,831	-0,377	-0,334
555,740	-157,441	-0,570	-0,027
556,754	-27,084	-0,561	0,257
557,769	-147,625	-0,634	0,041
558,783	-121,800	-0,755	0,097
559,798	-5,387	-0,452	-0,244
560,813	167,751	-0,342	0,382
561,827	13,078	-0,526	-0,319
562,842	700,000	-0,221	-0,582
563,856	-91,810	-0,440	-0,098
564,871	-112,893	-0,238	0,037
565,886	-152,528	-0,642	-0,036
566,900	-146,373	-0,601	0,041
567,915	-30,013	-0,725	-0,323
568,929	-119,984	-0,258	0,035
569,944	-200,000	-0,152	-0,764
570,959	-69,679	-0,744	-0,222
571,973	-52,452	-0,731	-0,264
572,988	-83,155	-0,929	-0,233
574,002	-64,736	-0,600	-0,190
575,017	-116,478	-1,263	-0,181
576,032	66,347	-0,718	-0,573
577,046	-69,462	-0,841	-0,252
578,061	-78,146	-0,815	0,219
579,075	-98,487	-0,594	0,118
580,090	175,045	-0,369	-0,420
581,105	155,163	-0,476	-0,515
582,119	513,379	-0,410	0,754
583,134	700,000	-0,170	-0,480
584,148	92,231	-0,404	-0,358
585,163	5,592	-0,740	-0,429
586,178	48,526	-0,634	-0,466
587,192	21,781	-0,317	-0,203
588,207	-79,332	-0,770	-0,204
589,221	27,018	-0,171	-0,113
590,236	-200,000	-0,075	-0,688
591,251	192,722	0,089	0,106
592,265	156,666	-0,330	-0,359
593,280	87,716	-0,416	0,361
594,294	82,027	-0,521	-0,443
595,309	279,420	-0,509	-0,715
596,324	48,925	-0,303	-0,223
597,338	-50,037	-0,379	-0,140
598,353	89,280	-0,769	-0,672
599,367	-24,701	-0,665	-0,309
600,382	700,000	-0,116	-0,343
601,396	-200,000	0,027	-0,455
602,411	33,047	-0,483	-0,328
603,426	245,648	-0,316	-0,418
604,440	-102,171	-0,574	-0,107
605,455	-106,594	-0,836	-0,145
606,469	84,064	-0,456	-0,391
607,484	-200,000	-0,030	-0,413
608,499	-200,000	-0,010	-0,290
609,513	689,331	-0,556	-1,147
610,528	61,846	-0,353	-0,275
611,542	-1,733	-0,679	-0,374
612,557	35,578	-0,249	-0,171
613,572	-140,865	-0,382	0,030
614,586	235,484	-0,431	-0,560
615,601	-27,394	-0,651	-0,296
616,615	-99,996	-0,344	-0,067
617,630	-96,087	-0,472	-0,098
618,645	357,792	-0,347	-0,545
619,659	-69,123	-0,486	0,146
620,674	1,812	-0,077	0,044
621,688	123,552	-0,217	-0,213
622,703	4,911	-0,947	-0,544
623,718	700,000	-0,343	-0,722
624,732	-64,482	-0,515	-0,163
625,747	134,197	-0,278	-0,282
626,761	352,742	-0,457	0,713
627,776	-70,665	-0,716	-0,211
628,791	23,387	-0,326	-0,210
629,805	-82,194	-0,295	-0,075
630,820	51,218	-0,621	-0,461
631,834	-148,730	0,081	-0,005
632,849	-89,238	-0,406	-0,093
633,864	145,349	-0,637	-0,669
634,878	284,113	-0,179	-0,252
635,893	160,201	-0,463	-0,506
636,907	83,105	-0,346	-0,295
637,922	700,000	-0,033	0,072
638,936	99,133	-0,489	-0,442
639,951	106,584	-0,472	-0,438
640,966	-118,746	-0,584	-0,080
641,980	700,000	-0,197	-0,506
642,995	-200,000	0,007	-0,557
644,009	91,769	-0,138	-0,121
645,024	-99,430	-0,432	0,085
646,039	-102,754	-0,399	-0,074
647,053	-200,000	-0,024	-0,315
648,068	-200,000	0,024	-0,300
649,082	700,000	-0,257	-0,597
650,097	30,280	-0,480	-0,320
651,112	-40,764	-0,637	-0,257
652,126	-43,608	-0,317	-0,125
653,141	153,280	-0,617	-0,661
654,155	-94,404	-0,417	0,088
655,170	300,661	-0,358	-0,518
656,185	106,372	-0,541	-0,501
657,199	415,017	-0,175	-0,293
658,214	463,051	-0,390	-0,684
659,228	-119,638	-0,722	-0,097
660,243	-200,000	-0,022	-0,102
661,258	243,098	-0,392	-0,514
662,272	43,638	-0,261	-0,187
663,287	0,959	-0,421	-0,236
664,301	-109,428	-0,123	0,020
665,316	-200,000	0,063	-0,589
666,331	-139,295	-0,113	0,009
667,345	-190,264	-1,028	-0,009
668,360	-109,000	0,120	0,020
669,374	-64,807	-0,272	-0,086
670,389	-6,901	-0,800	-0,424
671,404	-154,643	-0,577	-0,030
672,418	-125,738	-0,349	0,041
673,433	-28,644	-0,396	0,177
674,447	-86,474	-0,430	-0,102
675,462	160,054	-0,399	-0,435
676,476	-109,737	-0,574	0,093
677,491	372,919	-0,298	-0,475
678,506	700,000	-0,175	-0,499
679,520	-90,518	-0,344	-0,077
680,535	-102,964	-0,494	-0,091
681,549	601,460	-0,464	-0,903
682,564	146,740	-0,173	-0,182
683,579	-200,000	-0,037	0,505
684,593	-103,469	-0,615	0,112
685,608	79,541	-0,356	-0,298
686,622	-129,895	-0,476	0,050
687,637	-72,203	-0,478	-0,137
688,652	-109,934	-0,295	0,048
689,666	110,002	-0,647	-0,606
690,681	85,318	-0,320	-0,274
691,695	-24,930	-0,135	0,062
692,710	106,923	-0,191	0,177
693,725	37,406	-0,354	0,245
694,739	-103,069	-0,397	-0,073
695,754	60,691	-0,257	-0,198
696,768	320,755	-0,556	0,826
697,783	-100,726	-0,350	-0,067
698,798	-23,647	-0,546	-0,255
699,812	-79,875	-0,285	-0,074
700,827	375,312	-0,491	-0,783
701,841	-200,000	-0,215	-0,801
702,856	14,517	-0,727	-0,442
703,871	108,682	-0,576	-0,537
704,885	174,000	-0,034	0,038
705,900	700,000	0,207	-0,483
706,914	-200,000	-0,042	-0,287
707,929	412,679	0,015	0,024
708,944	700,000	-0,089	0,238
709,958	700,000	-0,352	-0,727
710,973	206,473	-0,605	-0,735
711,987	-12,201	-0,409	0,208
713,002	2,589	-0,232	0,131
714,017	-64,154	-0,222	0,070
715,031	700,000	-0,114	0,247
716,046	26,654	-0,277	-0,180
717,060	-164,948	-0,232	0,008
718,075	700,000	0,069	0,192
719,089	-51,261	-0,450	0,164
720,104	700,000	0,112	0,293
721,119	-148,467	-0,873	0,055
722,133	-100,240	-0,894	-0,172
723,148	241,669	-0,246	-0,321
724,162	396,919	-0,227	-0,370
725,177	66,265	0,060	0,048
726,192	-58,337	0,242	0,081
727,206	172,264	-0,526	-0,590
728,221	-81,989	-0,479	-0,121
729,235	171,486	-0,391	-0,438
730,250	35,038	-0,606	-0,412
731,265	434,008	-0,216	-0,366
732,279	537,373	-0,120	0,223
733,294	-200,000	-0,068	-0,355
734,308	154,184	-0,541	-0,578
735,323	364,972	-0,546	-0,859
736,338	-112,503	-0,337	0,052
737,352	-200,000	0,044	-0,152
738,367	-33,773	-0,389	0,166
739,381	700,000	-0,075	-0,235
740,396	144,163	-0,067	0,069
741,411	-30,337	-0,122	0,054
742,425	348,023	-0,460	-0,707
743,440	468,859	-0,311	-0,545
744,454	-77,593	-0,591	0,158
745,469	-107,360	-0,681	0,115
746,484	-125,733	-0,747	-0,087
747,498	-106,549	-0,604	-0,104
748,513	-200,000	0,009	-0,490
749,527	67,770	0,269	0,214
750,542	91,643	-0,424	-0,370
751,557	700,000	-0,034	-0,088
752,571	-83,236	-0,470	-0,117
753,586	-101,426	-0,403	-0,076
754,600	-200,000	-0,096	-0,419
755,615	236,240	-0,425	-0,548
756,629	129,584	-0,535	-0,532
757,644	28,256	-0,325	-0,213
758,659	149,701	-0,307	0,324
759,673	-200,000	-0,129	-0,538
760,688	-54,176	-0,493	0,173
761,702	700,000	-0,190	-0,504
762,717	-25,850	-0,194	0,089
763,732	-3,652	-0,187	-0,101
764,746	633,330	-0,167	-0,330
765,761	28,542	-0,341	0,224
766,775	-28,060	-0,473	0,212
767,790	-200,000	-0,023	-0,741
768,805	88,919	-0,446	-0,386
769,819	-160,858	-0,413	-0,017
770,834	-84,272	-0,279	-0,068
771,848	700,000	-0,194	-0,541
772,863	-200,000	0,020	-0,391
773,878	203,776	-0,259	0,311
774,892	-200,000	0,053	0,599
775,907	700,000	-0,030	-0,065
776,921	118,552	-0,194	0,186
777,936	387,163	-0,098	-0,158
778,951	-82,414	-0,346	0,087
779,965	322,759	-0,204	0,302
780,980	-40,585	-0,479	-0,192
781,994	-200,000	-0,050	-0,448
783,009	80,233	-0,590	-0,492
784,024	168,866	-0,353	0,391
785,038	-118,642	-0,253	0,034
786,053	700,000	-0,060	-0,191
787,067	60,640	-0,233	-0,179
788,082	-104,816	0,195	-0,034
789,097	-69,520	-0,624	0,184
790,111	364,330	-0,182	-0,285
791,126	15,734	-0,341	0,208
792,140	335,239	-0,077	0,117
793,155	-200,000	0,017	-0,193
794,169	24,409	0,185	-0,118
795,184	700,000	-0,058	-0,142
796,199	-200,000	-0,034	0,194
797,213	158,974	-0,316	-0,341
798,228	100,123	-0,442	-0,398
799,242	700,000	-0,108	-0,303
800,257	229,426	-0,250	-0,317
801,272	144,690	-0,161	0,167
802,286	-190,915	-0,395	0,003
803,301	83,776	-1,022	-0,864
804,315	23,677	-0,323	-0,206
805,330	23,508	-0,576	-0,367
806,345	700,000	-0,177	-0,594
807,359	-200,000	0,157	-0,648
808,374	700,000	0,107	-0,277
809,388	-48,883	-0,100	0,037
810,403	-200,000	-0,096	0,449
811,418	-166,857	-0,086	-0,003
812,432	-200,000	-0,016	0,197
813,447	170,858	-0,136	-0,151
814,461	-138,018	-0,463	-0,039
815,476	-134,184	-0,660	0,062
816,491	45,693	-0,537	-0,384
817,505	-77,993	0,051	-0,014
818,520	-200,000	-0,083	-0,777
819,534	-12,604	-0,410	-0,207
820,549	-31,854	-0,618	-0,267
821,564	490,317	-0,357	0,634
822,578	171,860	-0,217	-0,241
823,593	-200,000	0,007	-0,235
824,607	138,034	-0,318	-0,322
825,622	307,575	-0,173	-0,250
826,637	-109,796	-0,314	0,051
827,651	-128,766	-0,722	-0,078
828,666	58,131	-0,536	-0,406
829,680	229,943	-0,265	-0,336
830,695	625,017	-0,215	-0,421
831,709	-200,000	-0,138	-0,684
832,724	-200,000	0,014	-0,595
833,739	250,072	0,069	-0,090
834,753	320,898	-0,032	-0,048
835,768	-60,821	-0,405	-0,132
836,782	-200,000	-0,054	-0,245
837,797	310,838	-0,070	0,101
838,812	112,328	-0,148	-0,139
839,826	110,498	-0,183	-0,170
840,841	179,067	-0,509	-0,576
841,855	54,928	-0,434	0,324
842,870	700,000	-0,164	0,352
843,885	137,049	-0,348	-0,352
844,899	52,171	-0,312	-0,230
845,914	-200,000	0,029	-0,447
846,928	-18,345	-0,356	0,172
847,943	-169,467	-0,097	-0,003
848,958	-160,968	-0,440	-0,018
849,972	98,907	-0,275	-0,246
850,987	38,278	-0,062	0,043
852,001	272,569	0,197	-0,269
853,016	263,839	-0,151	0,203
854,031	-94,064	-0,460	0,097
855,045	18,671	-0,269	0,166
856,060	68,505	-0,334	-0,265
857,074	47,903	-0,278	-0,200
858,089	-12,443	-0,277	0,139
859,104	-102,105	-0,712	-0,131
860,118	-12,963	-0,343	-0,172
861,133	99,673	-0,174	0,155
862,147	-121,466	-0,227	-0,029
863,162	29,626	-0,348	-0,228
864,177	700,000	-0,022	0,070
865,191	-105,348	-0,385	-0,067
866,206	-65,685	-0,280	0,086
867,220	-200,000	0,001	0,335
868,235	7,775	-0,202	-0,116
869,250	700,000	-0,112	-0,321
870,264	700,000	-0,134	0,285
871,279	-66,855	-0,109	0,033
872,293	58,974	-0,343	-0,260
873,308	-7,159	-0,252	-0,132
874,322	-62,728	-0,623	0,198
875,337	-96,467	-0,265	0,054
876,352	-200,000	0,020	-0,158
877,366	-200,000	-0,013	-0,095
878,381	-200,000	-0,032	0,211
879,395	320,726	-0,244	0,358
880,410	-96,118	-0,505	0,103
881,425	-136,598	-0,838	-0,074
882,439	-66,404	-0,331	-0,101
883,454	700,000	-0,141	-0,364
884,468	700,000	-0,060	-0,142
885,483	-164,414	-0,382	-0,013
886,498	-200,000	-0,002	0,166
887,512	-200,000	-0,029	-0,372
888,527	360,992	-0,145	-0,224
889,541	-122,074	-0,382	-0,048
890,556	92,745	-0,448	-0,390
891,571	90,901	-0,558	-0,482
892,585	127,056	-0,289	-0,282
893,600	-200,000	0,037	0,684
894,614	700,000	0,068	0,184
895,629	-35,571	-0,487	0,203
896,644	166,968	-0,367	-0,402
897,658	-200,000	-0,025	-0,388
898,673	304,108	-0,170	-0,243
899,687	-101,711	-0,339	-0,063
900,702	700,000	0,178	-0,575
901,717	126,808	-0,202	-0,197
902,731	-200,000	-0,029	0,158
903,746	700,000	-0,127	-0,403
904,760	-72,154	-0,181	0,051
905,775	-124,417	-0,626	0,074
906,790	-89,469	0,181	-0,041
907,804	-200,000	0,060	0,300
908,819	-76,279	-0,352	-0,095
909,833	-200,000	0,010	-0,466
910,848	-200,000	0,083	-0,420
911,862	-81,512	-0,231	-0,058
912,877	66,673	-0,347	0,272
913,892	-200,000	0,045	-0,355
914,906	-200,000	-0,163	0,638
915,921	-25,255	-0,327	0,148
916,935	91,500	-0,680	-0,588
917,950	112,405	-0,579	-0,540
918,965	102,283	-0,048	-0,044
919,979	64,076	0,179	0,138
920,994	27,732	0,295	-0,191
922,008	-141,430	-0,209	0,016
923,023	468,152	-0,302	-0,524
924,038	7,119	-0,224	0,128
925,052	700,000	-0,035	0,109
926,067	-200,000	0,167	-0,001
927,081	-149,060	0,108	0,007
928,096	700,000	-0,019	0,053
929,111	292,629	0,273	-0,384
930,125	478,920	-0,145	0,254
931,140	2,822	-0,353	0,196
932,154	196,661	-0,252	0,296
933,169	551,010	-0,339	0,629
934,184	165,371	-0,248	-0,270
935,198	700,000	-0,102	0,224
936,213	-200,000	-0,095	-0,474
937,227	41,545	-0,107	-0,074
938,242	74,440	-0,363	-0,294
939,257	-200,000	-0,042	-0,178
940,271	284,524	-0,248	-0,344
941,286	54,332	-0,367	-0,271
942,300	-30,411	-0,261	0,113
943,315	367,082	-0,193	-0,300
944,330	-136,249	-0,383	-0,034
945,344	700,000	-0,201	-0,516
946,359	46,975	-0,178	0,127
947,373	66,726	-0,348	-0,272
948,388	-200,000	-0,103	-0,488
949,402	700,000	-0,047	0,149
950,417	394,412	-0,109	0,175
951,432	424,064	-0,016	-0,027
952,446	-78,114	-0,160	-0,042
953,461	-92,577	-0,365	0,078
954,475	-200,000	0,023	-0,106
955,490	-154,574	-0,547	0,028
956,505	-8,642	-0,325	0,167
957,519	71,936	-0,352	0,281
958,534	518,564	-0,086	-0,155
959,548	-200,000	-0,074	0,452
960,563	-200,000	0,010	0,067
961,578	-200,000	0,001	-0,461
962,592	131,788	0,204	-0,202
963,607	700,000	0,054	-0,147
964,621	-200,000	-0,026	-0,230
965,636	-147,595	-0,116	0,007
966,651	700,000	-0,117	0,285
967,665	575,348	-0,202	0,380
968,680	24,552	-0,644	-0,408
969,694	58,415	-0,566	0,426
970,709	36,949	-0,134	0,091
971,724	650,694	0,033	-0,065
972,738	276,973	-0,144	0,198
973,753	-80,901	-0,528	-0,133
974,767	700,000	-0,245	-0,597
975,782	82,007	-0,307	0,255
976,797	-40,859	-0,285	0,113
977,811	-200,000	0,105	0,745
978,826	401,277	-0,076	0,123
979,840	633,159	0,220	0,429
980,855	-30,520	-0,069	0,030
981,870	108,790	-0,364	-0,334
982,884	40,339	-0,440	-0,303
983,899	-200,000	-0,076	-0,304
984,913	28,315	-0,165	-0,106
985,928	14,929	-0,374	-0,224
986,942	18,717	-0,253	0,155
987,957	221,518	-0,108	-0,134
988,972	-92,202	-0,291	-0,062
989,986	-200,000	-0,088	-0,307
991,001	-200,000	0,015	0,197
992,015	165,832	-0,027	0,029
993,030	-98,180	-0,297	-0,058
994,045	-200,000	-0,060	0,291
995,059	700,000	-0,088	-0,217
996,074	296,650	-0,202	0,284
997,088	-78,853	-0,386	0,100
998,103	-106,511	-0,324	-0,055
999,118	146,198	-0,198	0,204
1000,132	-31,828	0,306	-0,131
1001,147	700,000	-0,211	0,527
1002,161	145,519	-0,104	0,107
1003,176	-200,000	-0,096	-0,595
1004,191	-137,170	-0,600	0,052
1005,205	700,000	-0,149	-0,360
1006,220	-11,684	-0,250	-0,126
1007,234	-160,392	-0,546	0,022
1008,249	700,000	0,108	-0,260
1009,264	466,553	0,097	-0,167
1010,278	358,181	0,238	0,364
1011,293	52,245	-0,172	-0,125
1012,307	-80,055	-0,115	0,029
1013,322	-200,000	0,073	0,456
1014,337	536,923	0,020	-0,037
1015,351	700,000	-0,338	0,703
1016,366	366,143	-0,186	-0,288
1017,380	700,000	0,257	-0,558
1018,395	109,481	-0,101	0,093
1019,410	-200,000	0,028	0,223
1020,424	-49,298	0,158	-0,057
1021,439	700,000	0,145	-0,384
1022,453	700,000	-0,156	0,418
1023,468	700,000	-0,186	-0,385
1024,483	283,395	0,134	-0,185
1025,497	-171,316	-0,249	0,006
1026,512	378,761	-0,206	-0,323
1027,526	700,000	-0,051	-0,168
1028,541	-73,789	-0,590	0,163
1029,555	13,038	-0,401	0,237
1030,570	-200,000	-0,105	0,381
1031,585	373,937	-0,244	-0,381
1032,599	-127,466	-0,508	-0,056
1033,614	468,807	0,043	0,074
1034,628	519,095	0,204	-0,367
1035,643	-200,000	-0,118	0,453
1036,658	-200,000	-0,026	0,332
1037,672	-14,898	-0,254	0,124
1038,687	-6,325	-0,303	0,158
1039,701	-200,000	0,027	-0,135
1040,716	-200,000	0,024	-0,487
1041,731	700,000	0,219	-0,529
1042,745	89,504	0,228	-0,194
1043,760	90,800	-0,185	-0,158
1044,774	-123,428	-0,536	0,065
1045,789	700,000	0,034	-0,083
1046,804	-108,921	0,517	0,084
1047,818	120,675	0,329	0,312
1048,833	700,000	-0,208	0,431
1049,847	153,996	-0,207	0,217
1050,862	-109,989	-0,442	-0,070
1051,877	-200,000	0,011	0,248
1052,891	-84,640	-0,177	-0,042
1053,906	700,000	-0,151	0,348
1054,920	-200,000	-0,084	-0,346
1055,935	-119,945	-0,051	0,007
1056,950	-101,568	-0,338	0,062
1057,964	-41,124	-0,318	0,125
1058,979	700,000	-0,035	0,082
1059,993	-48,792	0,129	0,047
1061,008	113,161	-0,174	-0,161
1062,023	-57,421	-0,413	-0,138
1063,037	-200,000	0,012	-0,633
1064,052	-200,000	0,065	-0,942
1065,066	-200,000	-0,019	-0,771
1066,081	-200,000	-0,009	0,037
1067,095	700,000	0,032	0,070
1068,110	468,774	-0,078	-0,135
1069,125	-76,590	-0,275	0,073
1070,139	295,487	-0,099	0,138
1071,154	-200,000	-0,012	0,159
1072,168	-200,000	-0,069	0,274
1073,183	19,584	-0,077	0,047
1074,198	125,364	-0,044	0,043
1075,212	-123,074	-0,170	-0,021
1076,227	-200,000	-0,040	0,320
1077,241	-81,382	-0,069	0,017
1078,256	-200,000	-0,049	-0,166
1079,271	29,765	-0,283	0,184
1080,285	54,185	-0,542	-0,397
1081,300	163,822	-0,258	-0,277
1082,314	-57,715	0,184	-0,061
1083,329	371,881	0,221	0,343
1084,344	-200,000	-0,002	0,283
1085,358	-39,967	-0,337	0,134
1086,373	143,037	-0,167	-0,169
1087,387	700,000	-0,291	-0,684
1088,402	175,549	0,088	-0,097
1089,417	289,053	-0,089	-0,123
1090,431	-200,000	0,056	-0,429
1091,446	-200,000	0,008	-0,277
1092,460	700,000	-0,091	-0,194
1093,475	-200,000	-0,023	0,193
1094,490	154,390	-0,192	0,201
1095,504	-200,000	-0,092	0,560
1096,519	-69,329	-0,301	0,087
1097,533	-12,624	-0,360	0,178
1098,548	700,000	-0,131	-0,366
1099,563	-200,000	-0,066	0,421
1100,577	28,098	-0,207	0,133
1101,592	-200,000	0,080	0,502
1102,606	-200,000	0,088	0,596
1103,621	6,886	-0,131	0,074
1104,635	53,868	-0,441	0,322
1105,650	-200,000	0,027	-0,291
1106,665	700,000	-0,065	-0,186
1107,679	-143,399	-0,640	0,046
1108,694	379,877	-0,080	-0,125
1109,708	-101,112	0,303	-0,056
1110,723	-200,000	0,131	0,511
1111,738	462,875	-0,236	0,403
1112,752	-147,801	-0,339	0,021
1113,767	444,129	-0,216	0,362
1114,781	117,784	-0,454	0,426
1115,796	-200,000	0,110	0,475
1116,811	-89,916	-0,253	0,056
1117,825	700,000	-0,204	0,615
1118,840	-111,549	0,181	-0,028
1119,854	-151,900	0,159	-0,009
1120,869	-125,269	-0,149	0,017
1121,884	700,000	0,070	-0,169
1122,898	-200,000	-0,010	0,390
1123,913	-1,320	-0,244	0,131
1124,927	8,290	-0,448	0,255
1125,942	700,000	-0,156	-0,352
1126,957	249,636	-0,256	0,331
1127,971	700,000	-0,049	0,129
1128,986	-200,000	0,026	-0,247
1130,000	700,000	-0,266	0,549
1131,015	8,231	-0,083	0,048
1132,030	-200,000	-0,001	0,134
1133,044	700,000	-0,127	-0,293
1134,059	700,000	-0,159	-0,356
1135,073	-41,888	0,255	-0,099
1136,088	6,095	0,216	0,121
1137,103	-174,157	-0,183	0,004
1138,117	700,000	-0,033	-0,106
1139,132	122,668	0,207	-0,197
1140,146	-200,000	-0,014	0,066
1141,161	520,106	-0,077	0,138
1142,176	308,558	0,073	-0,104
1143,190	-89,833	0,258	0,057
1144,205	-200,000	-0,041	0,473
1145,219	-200,000	-0,025	0,611
1146,234	-200,000	0,092	0,337
1147,248	700,000	-0,172	0,410
1148,263	-63,118	-0,135	-0,042
1149,278	333,961	0,105	0,155
1150,292	-8,612	-0,238	-0,121
1151,307	700,000	-0,026	0,077
1152,321	49,887	0,223	0,159
1153,336	174,717	-0,100	0,109
1154,351	34,567	-0,349	0,231
1155,365	129,537	-0,075	-0,073
1156,380	-200,000	0,002	-0,036
1157,394	229,157	-0,082	0,102
1158,409	700,000	-0,078	-0,217
1159,424	-200,000	0,028	0,285
1160,438	-200,000	-0,001	0,105
1161,453	124,540	0,298	0,285
1162,467	700,000	-0,055	0,112
1163,482	-200,000	-0,118	0,468
1164,497	-200,000	-0,042	0,149
1165,511	1,257	-0,250	0,136
1166,526	-177,661	-0,134	0,002
1167,540	397,253	-0,341	-0,542
1168,555	103,819	-0,320	0,285
1169,570	154,437	-0,087	-0,091
1170,584	-200,000	0,021	0,161
1171,599	35,032	-0,296	-0,196
1172,613	700,000	-0,276	-0,708
1173,628	-27,707	-0,214	0,094
1174,643	-200,000	-0,008	-0,603
1175,657	700,000	-0,161	-0,443
1176,672	-97,142	-0,317	-0,062
1177,686	700,000	-0,034	0,101
1178,701	700,000	-0,064	0,143
1179,716	24,223	-0,224	-0,140
1180,730	700,000	-0,097	0,201
1181,745	-75,123	-0,224	-0,060
1182,759	-83,143	0,032	0,008
1183,774	230,842	-0,134	-0,167
1184,788	35,732	-0,296	-0,197
1185,803	-66,408	-0,497	-0,149
1186,818	700,000	-0,127	-0,319
1187,832	-200,000	-0,165	0,563
1188,847	-146,229	-0,257	0,017
1189,861	-83,066	-0,348	-0,084
1190,876	59,815	0,131	0,098
1191,891	-9,799	0,166	0,084
1192,905	130,337	0,133	-0,129
1193,920	-80,590	0,112	-0,028
1194,934	700,000	0,105	0,303
1195,949	700,000	-0,073	-0,207
1196,964	-63,816	0,214	0,066
1197,978	-17,876	0,404	-0,191
1198,993	458,524	0,077	-0,129
1200,007	-125,402	-0,412	-0,047
1201,022	-81,188	0,177	-0,044
1202,037	465,610	-0,127	-0,217
1203,051	-200,000	-0,032	-0,518
1204,066	-200,000	0,094	-0,384
1205,080	-200,000	0,076	-0,343
1206,095	-200,000	-0,032	-0,190
1207,110	700,000	-0,104	-0,315
1208,124	-83,049	-0,248	0,060
1209,139	700,000	0,077	-0,238
1210,153	87,983	0,036	0,030
1211,168	700,000	-0,175	0,387
1212,183	-200,000	-0,044	0,583
1213,197	-200,000	0,001	-0,006
1214,212	-200,000	0,014	0,062
1215,226	-27,680	0,372	0,163
1216,241	-75,434	-0,129	0,035
1217,256	700,000	-0,320	0,934
1218,270	383,794	-0,214	0,334
1219,285	642,136	-0,198	-0,384
1220,299	-167,943	-0,161	-0,005
1221,314	683,657	0,221	0,438
1222,328	-200,000	0,130	0,530
1223,343	142,616	-0,324	-0,325
1224,358	11,293	-0,428	-0,247
1225,372	114,620	-0,117	-0,108
1226,387	-200,000	0,061	-0,219
1227,401	25,809	-0,267	0,168
1228,416	374,475	-0,340	0,525
1229,431	94,411	0,243	-0,209
1230,445	-200,000	-0,052	-0,410
1231,460	-56,388	-0,412	0,137
1232,474	-200,000	0,013	0,189
1233,489	-129,813	-0,207	-0,021
1234,504	-200,000	-0,093	0,774
1235,518	-200,000	-0,040	-0,377
1236,533	-68,692	-0,222	-0,064
1237,547	444,962	0,347	-0,577
1238,562	297,649	0,274	-0,380
1239,577	233,233	0,146	-0,181
1240,591	-192,152	-0,249	-0,002
1241,606	700,000	-0,109	0,272
1242,620	-200,000	-0,085	0,433
1243,635	-200,000	-0,100	0,532
1244,650	499,131	0,034	0,059
1245,664	172,904	0,109	0,118
1246,679	-200,000	0,036	-0,242
1247,693	700,000	-0,197	0,475
1248,708	-92,760	-0,275	0,058
1249,723	-130,817	-0,282	0,028
1250,737	-154,725	-0,135	-0,007
1251,752	-111,280	-0,207	0,032
1252,766	-28,631	-0,207	-0,090
1253,781	700,000	0,016	-0,038
1254,796	52,876	0,237	-0,171
1255,810	137,889	0,138	-0,137
1256,825	700,000	0,071	-0,214
1257,839	162,586	-0,042	-0,045
1258,854	617,246	0,100	-0,191
1259,868	-121,312	-0,209	0,026
1260,883	-75,434	-0,657	-0,175
1261,898	-200,000	-0,173	0,636
1262,912	-200,000	0,004	0,142
1263,927	-200,000	0,067	0,273
1264,941	314,445	-0,147	0,210
1265,956	115,321	-0,359	-0,330
1266,971	145,853	-0,267	-0,270
1267,985	-170,207	-0,362	-0,009
1269,000	28,085	-0,480	0,305
1270,014	52,174	-0,350	0,252
1271,029	539,462	-0,222	-0,399
1272,044	700,000	-0,075	-0,179
1273,058	-111,892	-0,200	0,030
1274,073	-148,147	-0,122	-0,007
1275,087	-200,000	-0,003	-0,029
1276,102	8,449	-0,469	0,265
1277,117	92,485	-0,272	0,231
1278,131	436,733	-0,226	-0,372
1279,146	296,489	-0,123	0,171
1280,160	-200,000	-0,021	0,383
1281,175	-200,000	0,037	0,155
1282,190	-200,000	0,091	0,333
1283,204	698,299	0,244	0,485
1284,219	211,447	-0,158	-0,187
1285,233	-6,412	-0,507	0,260
1286,248	223,495	-0,386	0,470
1287,263	-144,786	0,046	-0,003
1288,277	-1,229	0,413	-0,219
1289,292	-191,156	0,108	-0,001
1290,306	-3,785	-0,455	0,237
1291,321	318,236	-0,065	0,093
1292,336	-133,195	0,128	0,012
1293,350	700,000	-0,115	-0,245
1294,365	584,688	-0,159	0,295
1295,379	286,524	-0,306	0,417
1296,394	-63,158	-0,259	0,080
1297,409	700,000	-0,108	-0,321
1298,423	3,338	-0,392	0,215
1299,438	-18,183	-0,221	0,104
1300,452	259,919	-0,479	-0,623
1301,467	0,616	-0,491	-0,264
1302,481	-35,304	0,175	0,072
1303,496	700,000	0,098	-0,250
1304,511	-200,000	0,014	-0,090
1305,525	303,939	0,120	-0,168
1306,540	700,000	-0,122	0,355
1307,554	-200,000	-0,044	0,298
1308,569	210,328	0,144	0,170
1309,584	-200,000	0,072	-0,246
1310,598	128,952	-0,203	-0,194
1311,613	700,000	-0,170	0,547
1312,627	221,739	-0,250	0,302
1313,642	-62,899	-0,372	0,115
1314,657	-200,000	0,076	-0,338
1315,671	700,000	0,260	-0,585
1316,686	113,240	0,458	-0,417
1317,700	-65,632	0,145	0,043
1318,715	379,570	-0,089	-0,138
1319,730	-183,420	-0,360	0,005
1320,744	406,135	-0,347	0,552
1321,759	97,574	-0,056	0,048
1322,773	700,000	-0,107	-0,296
1323,788	39,757	-0,019	-0,013
1324,803	-200,000	0,012	-0,383
1325,817	700,000	-0,106	0,318
1326,832	-200,000	-0,025	-0,265
1327,846	-200,000	0,031	-0,292
1328,861	-200,000	0,027	0,326
1329,876	33,180	-0,184	0,120
1330,890	58,974	0,190	-0,140
1331,905	-67,398	-0,066	-0,019
1332,919	-42,391	0,108	-0,041
1333,934	258,263	0,380	-0,492
1334,949	700,000	-0,110	0,276
1335,963	700,000	-0,144	0,472
1336,978	700,000	-0,104	0,297
1337,992	112,160	-0,294	-0,267
1339,007	700,000	-0,158	-0,335
1340,021	77,783	-0,057	-0,046
1341,036	-133,660	-0,118	-0,011
1342,051	700,000	-0,122	-0,369
1343,065	290,918	-0,094	0,128
1344,080	700,000	0,176	0,384
1345,094	199,046	0,133	-0,153
1346,109	-200,000	-0,336	-0,001
1347,124	343,303	-0,203	0,299
1348,138	330,729	-0,196	-0,284
1349,153	49,748	0,033	0,024
1350,167	-200,000	0,017	0,441
