DTS Sentinel unit serial number:	SN409017Multiplexer serial number:	ORYXHardware model number:	OX4Software version number:	ORYX F/W v1,02 Oryx Data Collector v3.7.1.3data status	okinstallation	speulderbos2017nov21differential loss correction	single-endedforward channel	channel 1reverse channel	N/Adate	2018/01/07time	20:22:49forward acquisition time	30,00reverse acquisition time	0,00gamma	498,7988k internal	0,2786k external	0,2786temperature offset calibration	1,0000default loss term (dB/km)	0,3730temperature slope calibration	0,7000multiplexer offset coefficient	1,0000multiplexer slope coefficient	1,0000fibre end	0,00T internal ref (°C)	15,34T ext. ref 1 (°C)	3,07T ext. ref 2 (°C)	1258,77length (m)	temperature (°C)	Stokes	anti-Stokes-747,000	256,003	0,242	0,348
-745,985	33,285	0,251	-0,182
-744,971	-69,898	0,574	0,182
-743,956	700,000	-0,348	-0,779
-742,942	1,134	0,650	0,389
-741,927	87,692	-0,386	-0,358
-740,912	25,641	0,349	-0,242
-739,898	700,000	-0,388	-1,071
-738,883	-143,536	0,302	-0,024
-737,869	-77,282	-0,423	-0,122
-736,854	-155,938	0,069	-0,004
-735,839	-26,844	-0,563	-0,274
-734,825	700,000	-0,054	0,186
-733,810	-133,732	-0,266	0,027
-732,796	-99,247	-0,670	0,140
-731,781	121,207	0,154	0,160
-730,766	118,958	-0,362	-0,375
-729,752	-200,000	-0,012	-0,574
-728,737	82,932	-0,171	0,155
-727,723	42,482	0,202	0,154
-726,708	700,000	0,191	-0,435
-725,694	260,478	0,252	-0,364
-724,679	700,000	-0,180	-0,444
-723,664	68,507	-0,342	-0,292
-722,650	38,130	0,115	0,085
-721,635	29,947	0,181	-0,128
-720,621	246,620	0,114	0,160
-719,606	-26,487	0,560	-0,273
-718,591	90,021	0,333	-0,311
-717,577	-200,000	0,088	-0,409
-716,562	700,000	-0,115	0,420
-715,548	-200,000	0,045	-0,183
-714,533	-117,464	0,096	-0,014
-713,518	-20,283	0,137	-0,070
-712,504	-200,000	0,074	-0,345
-711,489	-200,000	0,073	-0,339
-710,475	423,499	-0,256	0,461
-709,460	-200,000	-0,059	0,260
-708,445	-200,000	-0,073	0,418
-707,431	700,000	-0,172	-0,519
-706,416	-103,050	-0,315	-0,062
-705,402	40,380	-0,194	0,146
-704,387	14,634	0,285	-0,185
-703,372	445,727	-0,124	-0,229
-702,358	209,341	0,229	0,299
-701,343	-200,000	-0,006	0,483
-700,329	480,965	-0,054	0,102
-699,314	-200,000	-0,031	-0,433
-698,299	205,646	0,054	0,070
-697,285	700,000	0,186	-0,473
-696,270	-104,370	-0,521	0,100
-695,256	607,764	-0,156	0,327
-694,241	-75,970	0,209	-0,061
-693,226	-24,964	-0,262	-0,129
-692,212	700,000	0,054	0,195
-691,197	52,008	0,500	-0,397
-690,183	-128,563	0,144	-0,017
-689,168	-86,593	0,552	-0,140
-688,154	-99,019	0,337	0,071
-687,139	-200,000	0,067	0,412
-686,124	476,639	-0,137	-0,259
-685,110	27,702	0,147	-0,103
-684,095	493,933	0,157	-0,301
-683,081	-27,125	-0,390	-0,189
-682,066	-87,240	-0,714	0,180
-681,051	-168,824	-0,694	0,021
-680,037	700,000	-0,157	-0,363
-679,022	-200,000	-0,033	-0,276
-678,008	-200,000	0,078	0,341
-676,993	-103,458	0,217	0,042
-675,978	-100,636	-0,060	-0,012
-674,964	13,416	-0,529	-0,341
-673,949	-200,000	-0,142	-0,523
-672,935	700,000	-0,118	0,323
-671,920	-19,368	-0,219	-0,113
-670,905	700,000	-0,168	0,486
-669,891	-89,027	0,505	0,124
-668,876	-26,586	0,143	-0,070
-667,862	-200,000	0,066	0,260
-666,847	-68,442	-0,430	-0,138
-665,832	-200,000	0,011	-0,183
-664,818	-30,767	-0,286	-0,134
-663,803	-200,000	0,004	0,042
-662,789	-156,150	0,541	-0,028
-661,774	261,087	-0,390	-0,563
-660,759	198,684	-0,213	-0,272
-659,745	522,733	0,184	0,361
-658,730	-29,711	-0,167	0,079
-657,716	79,780	0,187	0,168
-656,701	276,569	-0,204	0,302
-655,686	-200,000	0,065	-0,403
-654,672	700,000	0,033	-0,098
-653,657	-200,000	-0,026	-0,221
-652,643	-20,561	0,234	-0,119
-651,628	-35,738	-0,230	0,104
-650,613	514,578	0,053	0,104
-649,599	425,593	0,270	-0,486
-648,584	-200,000	0,066	-0,442
-647,570	34,163	-0,445	0,323
-646,555	225,888	0,102	-0,138
-645,541	-200,000	0,007	-0,172
-644,526	75,318	0,423	-0,371
-643,511	-200,000	0,010	-0,193
-642,497	-104,942	-0,440	0,083
-641,482	700,000	0,198	0,455
-640,468	-200,000	0,036	0,573
-639,453	-182,260	-0,120	0,002
-638,438	-200,000	-0,074	0,363
-637,424	353,628	-0,083	-0,137
-636,409	195,004	-0,297	-0,376
-635,395	700,000	0,189	-0,605
-634,380	46,771	-0,143	-0,111
-633,365	275,464	0,347	0,514
-632,351	651,234	0,178	0,382
-631,336	175,394	0,292	0,353
-630,322	590,159	-0,054	-0,111
-629,307	-96,669	0,318	-0,069
-628,292	399,272	-0,179	0,313
-627,278	664,837	-0,014	0,031
-626,263	163,068	-0,184	0,216
-625,249	700,000	-0,152	0,521
-624,234	-84,300	0,120	-0,031
-623,219	-131,011	-0,379	-0,042
-622,205	-200,000	-0,039	-0,191
-621,190	-63,790	-0,278	0,094
-620,176	47,248	0,534	-0,413
-619,161	-200,000	0,009	0,059
-618,146	-49,161	0,260	0,103
-617,132	-111,811	-0,595	-0,099
-616,117	-129,966	-0,421	0,047
-615,103	-200,000	0,054	0,313
-614,088	-75,038	0,422	0,125
-613,073	369,872	0,238	0,403
-612,059	-108,533	0,649	-0,115
-611,044	-78,600	0,392	0,111
-610,030	1,388	0,294	0,175
-609,015	201,305	0,228	0,293
-608,001	112,031	-0,292	0,293
-606,986	101,040	-0,267	0,258
-605,971	277,049	-0,087	-0,128
-604,957	2,761	0,554	-0,333
-603,942	-17,553	0,083	-0,043
-602,928	49,857	0,510	-0,399
-601,913	-100,660	0,455	-0,093
-600,898	54,448	0,284	0,227
-599,884	150,556	0,381	-0,431
-598,869	48,854	-0,216	0,169
-597,855	171,070	-0,340	-0,405
-596,840	155,957	0,365	-0,419
-595,825	436,054	0,225	0,409
-594,811	-107,255	0,404	0,073
-593,796	-79,580	-0,164	-0,046
-592,782	-200,000	-0,040	0,466
-591,767	700,000	0,194	-0,465
-590,752	-96,869	0,334	-0,072
-589,738	-16,372	0,576	0,303
-588,723	-200,000	0,022	0,529
-587,709	-143,703	-0,283	0,022
-586,694	190,285	-0,255	-0,319
-585,679	194,925	-0,203	-0,256
-584,665	-200,000	-0,093	0,454
-583,650	59,036	-0,357	0,292
-582,636	700,000	0,068	0,211
-581,621	-114,820	0,238	-0,037
-580,606	529,527	-0,082	-0,161
-579,592	329,005	-0,115	0,184
-578,577	-110,317	-0,267	0,046
-577,563	-200,000	-0,002	-0,050
-576,548	574,202	0,055	-0,111
-575,533	72,370	0,317	0,274
-574,519	452,508	-0,304	-0,560
-573,504	37,639	0,308	-0,227
-572,490	-169,685	-0,478	-0,014
-571,475	-200,000	0,095	-0,418
-570,461	205,152	-0,390	0,503
-569,446	-200,000	0,009	0,377
-568,431	66,501	-0,014	0,012
-567,417	-53,061	0,365	-0,139
-566,402	-200,000	-0,104	0,557
-565,388	110,022	0,273	-0,272
-564,373	79,721	-0,391	0,348
-563,358	-200,000	-0,003	0,137
-562,344	32,438	-0,290	-0,208
-561,329	-53,054	-0,082	-0,031
-560,315	-81,117	-0,424	0,116
-559,300	209,469	-0,188	-0,245
-558,285	487,261	-0,056	-0,106
-557,271	-200,000	-0,029	-0,138
-556,256	-200,000	0,067	-0,709
-555,242	129,367	-0,195	0,207
-554,227	139,367	0,316	-0,345
-553,212	111,946	-0,059	0,059
-552,198	-76,147	0,330	0,096
-551,183	-200,000	0,009	0,131
-550,169	-200,000	-0,001	-0,759
-549,154	121,302	0,306	-0,316
-548,139	388,606	0,274	0,472
-547,125	474,354	0,031	0,058
-546,110	-58,169	-0,427	0,154
-545,096	207,793	0,405	0,526
-544,081	-200,000	0,002	0,199
-543,066	100,613	-0,165	-0,159
-542,052	700,000	-0,049	-0,135
-541,037	700,000	0,067	-0,211
-540,023	-200,000	0,016	0,093
-539,008	116,520	-0,276	0,281
-537,993	93,458	-0,352	0,331
-536,979	291,505	0,177	-0,268
-535,964	-3,578	-0,178	-0,102
-534,950	-200,000	-0,028	-0,460
-533,935	-105,887	-0,628	-0,116
-532,920	37,813	-0,384	-0,282
-531,906	166,566	0,259	0,304
-530,891	-23,550	-0,490	0,243
-529,877	103,317	-0,326	-0,317
-528,862	700,000	-0,053	0,128
-527,848	-40,140	-0,252	0,108
-526,833	700,000	0,192	-0,477
-525,818	98,697	0,283	0,271
-524,804	-49,261	-0,179	-0,071
-523,789	-200,000	-0,031	-0,134
-522,775	-200,000	-0,002	0,231
-521,760	156,466	-0,341	-0,390
-520,745	119,264	-0,199	-0,204
-519,731	700,000	-0,114	-0,278
-518,716	-100,464	-0,450	-0,092
-517,702	-24,191	0,561	-0,277
-516,687	-200,000	-0,020	-0,244
-515,672	-4,966	-0,243	0,138
-514,658	-200,000	0,048	0,666
-513,643	-71,120	-0,376	-0,116
-512,629	-46,156	-0,270	-0,110
-511,614	-104,232	-0,192	-0,037
-510,599	-2,678	0,102	-0,059
-509,585	242,038	-0,073	-0,101
-508,570	-200,000	-0,003	0,171
-507,556	251,281	0,141	-0,198
-506,541	90,964	-0,297	0,276
-505,526	-141,159	0,182	-0,015
-504,512	-81,846	0,325	-0,088
-503,497	338,950	0,174	0,282
-502,483	10,146	-0,557	-0,350
-501,468	411,256	-0,429	-0,756
-500,453	-26,849	-0,232	0,112
-499,439	700,000	-0,021	0,053
-498,424	-200,000	-0,004	-0,264
-497,410	-200,000	-0,028	-0,206
-496,395	36,599	0,383	0,280
-495,380	-53,713	0,028	0,011
-494,366	700,000	0,038	-0,109
-493,351	-31,581	0,175	-0,081
-492,337	1,622	0,325	-0,193
-491,322	-200,000	-0,098	-0,365
-490,308	-200,000	0,109	-0,414
-489,293	-165,933	0,121	0,004
-488,278	654,589	0,120	-0,257
-487,264	-200,000	0,007	-0,084
-486,249	83,990	0,148	-0,134
-485,235	-200,000	0,002	-0,064
-484,220	-29,435	0,220	0,104
-483,205	350,277	-0,125	0,205
-482,191	21,622	0,220	0,148
-481,176	700,000	0,114	0,320
-480,162	-200,000	-0,005	0,205
-479,147	-138,733	0,415	0,037
-478,132	-200,000	0,060	-0,396
-477,118	13,704	-0,242	-0,156
-476,103	-200,000	-0,172	-0,717
-475,089	49,889	-0,091	-0,071
-474,074	339,013	0,319	0,516
-473,059	-80,465	-0,678	0,186
-472,045	-76,052	0,374	0,109
-471,030	-200,000	-0,048	0,261
-470,016	-55,940	0,278	0,102
-469,001	-120,383	0,174	0,024
-467,986	-155,204	-0,446	-0,024
-466,972	142,160	0,186	-0,204
-465,957	-54,168	0,439	-0,164
-464,943	-171,777	-0,233	-0,006
-463,928	-200,000	0,071	0,414
-462,913	63,799	-0,358	0,297
-461,899	-200,000	0,045	-0,458
-460,884	700,000	-0,111	0,391
-459,870	700,000	-0,080	-0,184
-458,855	456,196	0,244	-0,449
-457,840	-65,255	-0,450	0,149
-456,826	-175,618	0,283	0,006
-455,811	-71,813	-0,124	-0,038
-454,797	-200,000	-0,004	-0,094
-453,782	116,344	0,203	-0,206
-452,768	557,820	0,164	0,329
-451,753	26,769	-0,122	-0,084
-450,738	-200,000	-0,021	0,119
-449,724	-200,000	-0,063	-0,318
-448,709	280,732	-0,127	-0,188
-447,695	-200,000	-0,046	0,506
-446,680	-79,085	-0,333	0,093
-445,665	121,900	-0,153	0,158
-444,651	197,286	0,385	-0,486
-443,636	261,941	-0,199	0,285
-442,622	-65,411	0,371	-0,123
-441,607	-200,000	-0,431	-0,000
-440,592	38,753	-0,324	-0,239
-439,578	56,604	-0,167	-0,134
-438,563	-200,000	-0,055	-0,396
-437,549	-111,240	0,370	-0,062
-436,534	143,194	0,072	-0,079
-435,519	-90,778	0,325	-0,077
-434,505	700,000	0,015	0,036
-433,490	-102,698	0,476	-0,093
-432,476	-152,747	0,129	-0,007
-431,461	25,745	0,740	0,508
-430,446	700,000	-0,151	0,447
-429,432	-5,735	0,189	0,107
-428,417	-12,276	0,326	-0,176
-427,403	26,294	0,058	-0,040
-426,388	4,942	0,276	-0,167
-425,373	-200,000	-0,050	0,502
-424,359	-144,535	0,272	0,020
-423,344	-78,689	-0,155	-0,044
-422,330	-40,982	0,217	-0,092
-421,315	-58,837	0,573	0,203
-420,300	365,995	-0,185	-0,309
-419,286	-109,810	-0,274	-0,047
-418,271	17,200	0,277	0,181
-417,257	181,272	-0,133	0,161
-416,242	-200,000	-0,017	0,450
-415,228	651,606	-0,171	-0,362
-414,213	-123,436	0,237	-0,031
-413,198	99,613	-0,431	-0,412
-412,184	-19,624	0,376	0,192
-411,169	-200,000	0,336	-0,000
-410,155	-112,927	-0,122	0,020
-409,140	-33,928	0,229	-0,104
-408,125	350,785	-0,054	-0,088
-407,111	-149,159	-0,215	0,014
-406,096	-15,999	0,186	0,097
-405,082	90,403	-0,494	0,456
-404,067	-52,948	0,191	-0,072
-403,052	634,536	-0,054	-0,114
-402,038	-200,000	-0,005	-0,411
-401,023	-163,412	-0,651	0,025
-400,009	-86,215	0,719	-0,182
-398,994	291,344	-0,448	-0,674
-397,979	173,503	0,243	-0,290
-396,965	-200,000	0,031	-0,546
-395,950	-184,702	-0,181	-0,002
-394,936	700,000	0,141	0,398
-393,921	700,000	0,048	0,149
-392,906	-138,257	-0,604	0,054
-391,892	694,874	0,255	0,555
-390,877	700,000	-0,232	-0,549
-389,863	68,963	-0,108	0,091
-388,848	23,053	0,635	0,429
-387,833	-108,482	-0,445	-0,078
-386,819	97,782	0,184	0,175
-385,804	225,780	-0,298	-0,398
-384,790	430,896	0,253	0,453
-383,775	75,681	-0,279	0,243
-382,760	700,000	0,070	0,193
-381,746	-96,098	0,471	-0,103
-380,731	-200,000	0,011	-0,395
-379,717	-102,607	-0,542	0,106
-378,702	700,000	0,136	-0,370
-377,687	101,406	-0,209	0,201
-376,673	700,000	-0,041	-0,145
-375,658	-114,180	0,466	0,074
-374,644	700,000	0,103	0,350
-373,629	-200,000	0,051	0,267
-372,615	231,324	-0,155	0,209
-371,600	-64,864	-0,216	0,072
-370,585	52,279	-0,418	-0,328
-369,571	95,467	0,111	-0,104
-368,556	-200,000	0,380	0,001
-367,542	-74,512	0,120	0,035
-366,527	-200,000	0,006	0,052
-365,512	536,225	0,123	-0,241
-364,498	-200,000	0,039	0,156
-363,483	700,000	-0,122	-0,429
-362,469	-200,000	-0,125	-0,461
-361,454	-159,670	0,513	0,023
-360,439	-64,294	-0,212	-0,071
-359,425	129,436	-0,366	-0,385
-358,410	700,000	0,097	-0,214
-357,396	-109,422	-0,275	-0,048
-356,381	-98,914	-0,210	-0,044
-355,366	101,141	0,076	0,073
-354,352	-31,811	0,564	0,259
-353,337	112,523	0,205	-0,205
-352,323	99,750	0,408	-0,389
-351,308	-21,928	0,030	-0,015
-350,293	295,127	0,150	-0,227
-349,279	700,000	-0,129	-0,386
-348,264	10,134	-0,236	0,147
-347,250	-200,000	-0,072	0,333
-346,235	-122,746	0,250	-0,033
-345,220	-11,528	0,227	-0,123
-344,206	148,459	0,295	0,328
-343,191	208,920	-0,317	-0,410
-342,177	-102,428	0,245	-0,048
-341,162	-200,000	-0,025	-0,410
-340,147	171,680	-0,157	0,185
-339,133	-24,005	0,168	0,082
-338,118	338,837	-0,163	0,262
-337,104	-30,252	0,158	0,074
-336,089	223,228	0,206	0,273
-335,075	700,000	-0,088	0,253
-334,060	700,000	0,117	0,365
-333,045	246,173	0,068	0,094
-332,031	292,927	0,211	0,317
-331,016	-98,277	-0,126	-0,026
-330,002	651,889	-0,123	-0,259
-328,987	11,870	-0,364	0,230
-327,972	48,676	0,126	-0,097
-326,958	67,568	0,146	-0,122
-325,943	-42,090	0,569	-0,238
-324,929	-85,843	0,354	0,090
-323,914	-137,495	-0,658	0,060
-322,899	-200,000	-0,146	-0,736
-321,885	609,475	-0,289	-0,596
-320,870	-100,427	0,303	0,061
-319,856	144,120	0,091	0,100
-318,841	-140,459	0,173	-0,015
-317,826	-115,400	0,430	0,066
-316,812	-200,000	-0,013	-0,241
-315,797	90,832	0,475	0,438
-314,783	-200,000	-0,037	0,213
-313,768	-32,052	0,135	0,062
-312,753	700,000	0,020	0,065
-311,739	176,062	-0,100	-0,119
-310,724	-200,000	0,059	-0,242
-309,710	89,153	0,155	0,142
-308,695	-44,048	-0,414	0,170
-307,680	-200,000	-0,060	0,313
-306,666	700,000	0,020	0,064
-305,651	-200,000	-0,024	-0,198
-304,637	175,048	-0,202	0,241
-303,622	422,984	-0,058	-0,104
-302,607	28,029	0,645	-0,446
-301,593	-151,703	-0,314	-0,019
-300,578	38,606	0,204	0,149
-299,564	73,657	0,197	-0,170
-298,549	114,212	0,240	-0,240
-297,535	-16,513	-0,155	0,081
-296,520	13,111	0,072	-0,045
-295,505	-200,000	-0,086	-0,367
-294,491	-103,400	0,862	0,166
-293,476	91,384	-0,079	-0,073
-292,462	-39,760	0,261	0,111
-291,447	-200,000	-0,091	0,452
-290,432	-200,000	0,070	0,427
-289,418	-200,000	0,002	-0,663
-288,403	-200,000	-0,063	0,295
-287,389	-118,192	-0,445	-0,065
-286,374	-200,000	0,022	0,402
-285,359	-200,000	-0,035	-0,157
-284,345	92,458	0,333	0,308
-283,330	84,014	0,048	-0,043
-282,316	-200,000	-0,083	-0,371
-281,301	-68,959	0,242	-0,076
-280,286	700,000	0,091	-0,216
-279,272	-117,173	-0,174	-0,026
-278,257	130,874	0,036	0,038
-277,243	1,972	-0,200	0,118
-276,228	-200,000	-0,024	0,266
-275,213	149,656	-0,399	0,445
-274,199	-93,432	0,304	-0,069
-273,184	20,453	-0,437	-0,289
-272,170	-13,858	-0,452	-0,239
-271,155	28,179	0,199	0,138
-270,140	-200,000	0,005	0,219
-269,126	4,454	-0,552	0,331
-268,111	6,708	-0,484	0,295
-267,097	166,852	0,199	0,231
-266,082	-82,486	0,321	-0,085
-265,067	15,973	0,292	0,188
-264,053	61,423	-0,237	-0,193
-263,038	-200,000	-0,009	0,099
-262,024	-200,000	0,085	0,454
-261,009	-72,791	0,411	-0,123
-259,994	298,197	-0,142	0,215
-258,980	308,346	-0,315	0,484
-257,965	700,000	0,230	0,685
-256,951	700,000	-0,134	-0,417
-255,936	700,000	0,120	-0,279
-254,922	166,880	-0,267	0,312
-253,907	-78,210	-0,629	-0,176
-252,892	30,852	0,425	-0,298
-251,878	25,311	0,555	0,378
-250,863	-59,691	-0,420	0,147
-249,849	44,593	0,276	0,208
-248,834	-100,283	-0,378	-0,076
-247,819	-200,000	0,011	0,202
-246,805	-200,000	0,057	0,556
-245,790	128,265	-0,144	-0,150
-244,776	312,984	-0,074	-0,114
-243,761	-200,000	-0,014	-0,172
-242,746	-200,000	-0,483	0,000
-241,732	700,000	-0,085	-0,252
-240,717	652,204	0,124	0,262
-239,703	-200,000	-0,061	0,229
-238,688	38,124	-0,219	0,160
-237,673	70,990	-0,166	-0,141
-236,659	-200,000	-0,042	-0,515
-235,644	-90,379	0,382	-0,090
-234,630	-29,142	0,091	0,042
-233,615	-200,000	0,026	-0,274
-232,600	590,285	0,100	-0,203
-231,586	-149,954	-0,321	0,020
-230,571	407,476	0,123	-0,214
-229,557	11,856	-0,245	-0,154
-228,542	-163,691	-0,356	-0,014
-227,527	700,000	0,187	-0,600
-226,513	-155,924	0,225	-0,012
-225,498	-135,290	0,246	-0,024
-224,484	184,175	-0,285	-0,346
-223,469	341,678	-0,142	0,229
-222,454	614,848	0,155	0,320
-221,440	43,531	-0,130	-0,098
-220,425	-200,000	-0,057	0,463
-219,411	700,000	0,131	0,466
-218,396	-200,000	-0,028	0,791
-217,382	407,851	0,070	0,122
-216,367	232,084	-0,089	0,119
-215,352	-121,921	0,241	-0,032
-214,338	-200,000	-0,065	0,280
-213,323	-200,000	-0,042	0,197
-212,309	-62,933	0,548	-0,185
-211,294	-200,000	-0,022	0,313
-210,279	136,001	-0,224	-0,239
-209,265	116,785	0,229	0,230
-208,250	-163,171	-0,434	0,017
-207,236	-62,749	0,207	0,070
-206,221	-129,758	0,540	0,060
-205,206	158,885	0,383	-0,436
-204,192	247,712	-0,394	0,546
-203,177	279,051	-0,165	0,242
-202,163	-111,579	-0,490	0,081
-201,148	-24,351	0,172	0,084
-200,133	-55,808	0,250	0,091
-199,119	-200,000	-0,024	-0,501
-198,104	-200,000	-0,056	-0,367
-197,090	-142,035	-0,472	-0,038
-196,075	-29,304	-0,156	0,073
-195,060	-200,000	-0,112	0,523
-194,046	-200,000	0,014	-0,546
-193,031	-98,543	-0,422	-0,088
-192,017	-200,000	-0,012	0,219
-191,002	-53,525	0,215	-0,080
-189,987	-200,000	-0,033	0,303
-188,973	-200,000	0,130	-0,561
-187,958	88,445	0,500	0,454
-186,944	337,955	0,307	0,490
-185,929	700,000	-0,201	0,516
-184,914	-138,462	-0,236	0,021
-183,900	-155,718	-0,253	0,013
-182,885	-156,364	-0,816	0,041
-181,871	324,230	-0,180	-0,282
-180,856	-200,000	-0,103	-0,603
-179,842	-200,000	-0,048	0,306
-178,827	700,000	-0,186	0,423
-177,812	-200,000	-0,002	0,074
-176,798	-31,854	-0,087	-0,040
-175,783	-88,056	0,460	0,112
-174,769	-200,000	-0,004	-0,306
-173,754	67,724	-0,307	0,256
-172,739	384,674	-0,177	0,299
-171,725	375,477	0,155	-0,259
-170,710	700,000	0,108	-0,283
-169,696	700,000	0,141	0,341
-168,681	109,276	-0,202	0,197
-167,666	233,097	-0,143	0,192
-166,652	233,370	-0,127	0,171
-165,637	700,000	0,076	0,200
-164,623	700,000	0,036	0,080
-163,608	-200,000	0,016	0,062
-162,593	293,964	-0,381	0,570
-161,579	164,943	0,155	0,179
-160,564	-54,668	-0,395	0,145
-159,550	160,838	-0,270	-0,308
-158,535	450,379	-0,184	0,332
-157,520	-200,000	-0,130	-0,797
-156,506	-200,000	0,025	-0,592
-155,491	-67,088	-0,055	0,018
-154,477	241,303	-0,378	-0,516
-153,462	-73,690	-0,295	-0,087
-152,447	599,232	0,155	-0,315
-151,433	-200,000	-0,063	-0,613
-150,418	6,970	0,708	-0,430
-149,404	308,485	-0,085	-0,130
-148,389	-200,000	-0,024	-0,255
-147,374	-200,000	-0,025	-0,122
-146,360	700,000	0,200	0,463
-145,345	165,909	-0,343	-0,396
-144,331	139,382	-0,638	0,687
-143,316	-52,926	0,605	0,226
-142,302	-200,000	0,087	0,373
-141,287	547,204	-0,197	-0,387
-140,272	243,489	-0,035	0,048
-139,258	546,164	-0,197	-0,386
-138,243	647,966	0,101	-0,211
-137,229	112,607	0,320	-0,317
-136,214	83,878	0,497	-0,443
-135,199	700,000	-0,075	-0,172
-134,185	-200,000	-0,063	0,532
-133,170	700,000	0,033	-0,080
-132,156	138,480	0,395	-0,424
-131,141	-52,952	0,246	0,092
-130,126	-80,845	-0,365	-0,098
-129,112	-53,721	-0,372	-0,138
-128,097	-80,946	-0,438	-0,118
-127,083	-129,023	0,092	-0,010
-126,068	5,639	-0,207	-0,124
-125,053	21,854	0,275	-0,182
-124,039	-70,893	0,129	-0,039
-123,024	-106,205	-0,326	0,059
-122,010	-160,790	0,435	0,018
-120,995	476,084	0,227	-0,421
-119,980	406,726	-0,107	-0,185
-118,966	489,476	-0,107	-0,200
-117,951	628,538	0,068	-0,141
-116,937	190,537	-0,160	-0,196
-115,922	195,679	-0,226	0,281
-114,907	-29,536	0,191	0,089
-113,893	51,168	-0,215	-0,167
-112,878	254,005	-0,459	-0,642
-111,864	-95,366	-0,278	-0,061
-110,849	-200,000	-0,047	-0,260
-109,834	700,000	0,024	-0,072
-108,820	-200,000	-0,033	0,120
-107,805	87,165	0,446	0,402
-106,791	230,001	-0,328	-0,438
-105,776	-48,998	-0,310	0,121
-104,761	7,908	0,454	-0,277
-103,747	44,581	-0,350	-0,262
-102,732	-47,646	0,281	-0,111
-101,718	-58,967	-0,467	0,164
-100,703	200,039	0,270	0,338
-99,689	424,338	0,135	0,238
-98,674	37,579	0,391	0,282
-97,659	322,856	-0,119	-0,185
-96,645	164,576	-0,372	0,428
-95,630	155,482	0,285	-0,320
-94,616	-158,337	0,365	-0,017
-93,601	700,000	0,064	0,164
-92,586	624,693	-0,213	0,439
-91,572	100,076	0,366	-0,346
-90,557	-130,510	-0,520	0,057
-89,543	166,561	0,272	-0,315
-88,528	74,556	0,301	-0,258
-87,513	240,241	-0,166	0,226
-86,499	48,058	0,291	0,221
-85,484	-3,519	-0,301	0,170
-84,470	365,876	-0,213	0,351
-83,455	35,788	0,365	0,261
-82,440	-103,243	-0,231	-0,044
-81,426	-37,046	0,345	0,150
-80,411	332,384	-0,109	-0,172
-79,397	-58,398	0,291	-0,102
-78,382	4,217	-0,304	0,181
-77,367	55,362	0,349	-0,275
-76,353	241,103	0,290	-0,395
-75,338	266,449	-0,194	-0,276
-74,324	644,819	-0,101	-0,211
-73,309	-39,747	0,200	-0,085
-72,294	170,454	-0,142	-0,166
-71,280	-87,636	-0,386	-0,094
-70,265	97,623	-0,305	0,286
-69,251	-41,416	0,767	0,320
-68,236	-128,280	-0,288	0,033
-67,221	-200,000	0,035	-0,443
-66,207	432,895	-0,152	0,270
-65,192	10,366	0,224	0,139
-64,178	700,000	0,110	0,290
-63,163	-134,492	0,096	-0,009
-62,149	195,777	0,368	0,456
-61,134	-200,000	-0,031	0,868
-60,119	664,448	-1,996	-4,212
-59,105	-9,700	1,457	0,788
-58,090	69,213	0,697	-0,583
-57,076	459,927	3,570	6,493
-56,061	84,190	60,019	53,375
-55,046	431,524	1145,586	2027,061
-54,032	302,877	2183,901	3299,125
-53,017	99,356	2004,755	1886,873
-52,003	30,840	1752,283	1219,540
-50,988	22,173	1551,494	1028,991
-49,973	17,486	1482,113	956,524
-48,959	15,919	1464,008	936,053
-47,944	15,564	1458,816	930,719
-46,930	15,453	1455,172	927,743
-45,915	15,505	1452,417	926,238
-44,900	15,454	1450,011	924,386
-43,886	15,419	1447,128	922,316
-42,871	15,315	1444,981	920,338
-41,857	15,459	1442,953	919,801
-40,842	15,356	1441,761	918,440
-39,827	15,364	1440,348	917,549
-38,813	15,465	1438,551	916,922
-37,798	15,347	1436,859	915,160
-36,784	15,296	1435,911	914,237
-35,769	15,563	1433,104	913,878
-34,754	15,444	1432,037	912,508
-33,740	15,545	1430,112	911,794
-32,725	15,281	1429,729	910,075
-31,711	15,472	1428,216	910,118
-30,696	15,279	1427,239	908,410
-29,681	15,561	1424,770	908,334
-28,667	15,263	1424,174	906,299
-27,652	15,379	1422,730	905,971
-26,638	15,259	1421,790	904,687
-25,623	15,427	1420,447	904,706
-24,609	15,293	1419,324	903,230
-23,594	15,385	1417,379	902,452
-22,579	15,443	1416,701	902,302
-21,565	15,272	1415,866	900,807
-20,550	15,429	1414,235	900,581
-19,536	15,379	1413,008	899,497
-18,521	15,371	1412,275	898,953
-17,506	15,279	1411,011	897,618
-16,492	15,206	1410,578	896,911
-15,477	15,198	1410,512	896,791
-14,463	15,446	1408,542	896,834
-13,448	15,384	1407,965	896,100
-12,433	15,383	1405,816	894,691
-11,419	15,350	1405,156	894,060
-10,404	15,349	1404,037	893,304
-9,390	15,214	1403,952	892,491
-8,375	14,959	1402,966	890,467
-7,360	15,147	1400,961	890,164
-6,346	15,288	1400,332	890,481
-5,331	15,331	1398,867	889,742
-4,317	15,044	1397,494	887,308
-3,302	15,043	1396,921	886,903
-2,287	15,294	1395,357	887,206
-1,273	15,281	1395,853	887,417
-0,258	14,639	1397,371	884,930
0,756	11,978	1359,613	848,480
1,771	6,481	1293,955	780,164
2,786	3,295	1265,713	747,562
3,800	2,533	1259,391	740,082
4,815	1,616	1254,037	732,452
5,829	0,913	1249,600	726,428
6,844	0,622	1247,325	723,661
7,859	0,500	1245,641	722,053
8,873	0,642	1242,762	721,019
9,888	0,556	1241,232	719,674
10,902	0,447	1238,248	717,380
11,917	0,495	1237,596	717,187
12,931	0,543	1234,578	715,627
13,946	0,656	1233,610	715,560
14,961	0,646	1231,399	714,182
15,975	0,507	1230,522	712,972
16,990	0,647	1227,430	711,801
18,004	0,725	1225,569	711,047
19,019	0,500	1225,044	709,638
20,034	0,675	1222,990	709,226
21,048	0,757	1220,696	708,239
22,063	0,817	1219,435	707,749
23,077	0,633	1218,128	706,084
24,092	0,639	1216,418	705,076
25,107	0,693	1214,867	704,388
26,121	0,717	1212,162	702,887
27,136	0,814	1210,092	702,098
28,150	0,847	1207,192	700,527
29,165	0,905	1204,547	699,216
30,180	0,913	1201,898	697,674
31,194	1,069	1198,942	696,639
32,209	1,224	1194,867	694,940
33,223	1,434	1190,470	693,306
34,238	1,210	1187,360	690,428
35,253	1,558	1184,131	690,093
36,267	1,427	1183,281	688,959
37,282	1,455	1181,344	687,918
38,296	1,351	1180,821	687,097
39,311	1,495	1178,815	686,542
40,326	1,370	1177,663	685,263
41,340	1,314	1177,492	684,866
42,355	1,399	1175,818	684,239
43,369	1,376	1174,314	683,214
44,384	1,398	1173,467	682,783
45,399	1,350	1172,860	682,170
46,413	1,420	1171,429	681,611
47,428	1,342	1170,199	680,501
48,442	1,321	1168,841	679,579
49,457	1,291	1167,663	678,716
50,472	1,403	1167,323	678,981
51,486	1,472	1165,838	678,384
52,501	1,466	1164,431	677,497
53,515	1,164	1163,527	675,578
54,530	1,457	1162,268	676,115
55,544	1,526	1161,393	675,873
56,559	1,678	1159,900	675,643
57,574	1,459	1159,437	674,354
58,588	1,413	1158,829	673,757
59,603	1,538	1157,365	673,418
60,617	1,580	1156,065	672,808
61,632	1,330	1156,015	671,629
62,647	1,570	1154,192	671,591
63,661	1,475	1152,597	670,201
64,676	1,574	1151,541	669,988
65,690	1,468	1150,846	669,070
66,705	1,409	1150,860	668,779
67,720	1,516	1149,492	668,413
68,734	1,532	1147,455	667,261
69,749	1,567	1145,899	666,471
70,763	1,539	1145,828	666,263
71,778	1,657	1144,212	665,801
72,793	1,510	1144,557	665,316
73,807	1,961	1143,214	666,476
74,822	3,122	1143,599	671,757
75,836	4,464	1145,415	678,681
76,851	5,034	1143,818	680,194
77,866	4,949	1143,710	679,714
78,880	4,757	1142,819	678,303
79,895	5,110	1140,761	678,583
80,909	4,819	1139,493	676,517
81,924	4,722	1138,832	675,661
82,939	4,781	1137,275	674,952
83,953	4,534	1135,248	672,633
84,968	3,066	1132,075	664,340
85,982	2,412	1129,211	659,787
86,997	1,915	1128,310	657,065
88,012	1,917	1127,613	656,630
89,026	2,429	1126,270	658,021
90,041	2,014	1125,437	655,700
91,055	1,710	1123,814	653,403
92,070	2,101	1124,382	655,382
93,084	2,467	1122,980	656,100
94,099	2,325	1122,345	655,078
95,114	2,257	1121,183	654,071
96,128	1,847	1119,630	651,364
97,143	1,741	1118,203	650,038
98,157	1,715	1116,880	649,117
99,172	1,714	1116,469	648,832
100,187	1,406	1115,325	646,813
101,201	1,698	1113,947	647,223
102,216	1,551	1112,342	645,623
103,230	1,479	1111,943	645,044
104,245	1,686	1109,834	644,662
105,260	1,660	1108,800	643,910
106,274	1,697	1108,283	643,728
107,289	1,638	1107,259	642,846
108,303	1,701	1106,481	642,621
109,318	1,724	1105,230	641,955
110,333	1,453	1104,240	640,191
111,347	1,511	1102,748	639,531
112,362	1,678	1100,713	639,017
113,376	1,488	1100,865	638,268
114,391	1,536	1099,448	637,608
115,406	1,587	1098,809	637,414
116,420	1,549	1097,966	636,727
117,435	1,649	1096,098	636,023
118,449	1,417	1096,017	634,961
119,464	1,359	1094,328	633,703
120,479	1,385	1093,323	633,191
121,493	1,292	1093,024	632,589
122,508	1,275	1091,562	631,633
123,522	1,317	1089,566	630,618
124,537	1,431	1088,215	630,271
125,552	1,253	1087,105	628,849
126,566	1,360	1085,590	628,379
127,581	1,000	1085,289	626,669
128,595	0,986	1084,661	626,211
129,610	1,014	1083,001	625,330
130,624	0,907	1082,710	624,679
131,639	0,956	1081,123	623,931
132,654	0,795	1080,658	622,955
133,668	1,232	1079,788	624,225
134,683	0,953	1079,780	623,026
135,697	0,945	1078,560	622,251
136,712	1,027	1078,534	622,538
137,727	1,015	1077,705	621,971
138,741	1,205	1076,553	622,054
139,756	1,195	1074,621	620,858
140,770	1,163	1074,553	620,648
141,785	1,114	1073,391	619,740
142,800	1,190	1073,048	619,815
143,814	1,008	1072,993	618,996
144,829	1,186	1071,412	618,777
145,843	1,155	1070,654	618,177
146,858	0,976	1069,706	616,858
147,873	1,428	1068,930	618,220
148,887	1,281	1068,228	617,179
149,902	1,261	1066,913	616,297
150,916	1,086	1065,897	614,960
151,931	1,139	1064,514	614,340
152,946	1,211	1063,261	613,871
153,960	1,156	1062,978	613,448
154,975	1,234	1062,560	613,485
155,989	0,965	1061,312	611,634
157,004	1,197	1059,836	611,687
158,019	1,237	1058,311	610,931
159,033	1,004	1058,122	609,843
160,048	0,886	1056,974	608,668
161,062	0,970	1055,187	607,942
162,077	0,742	1054,750	606,732
163,092	0,879	1053,136	606,321
164,106	0,953	1052,746	606,357
165,121	0,841	1051,664	605,244
166,135	0,743	1050,372	604,072
167,150	1,003	1050,141	604,945
168,165	0,904	1049,779	604,303
169,179	1,004	1048,872	604,143
170,194	1,212	1047,323	604,047
171,208	1,272	1046,790	603,945
172,223	1,440	1045,929	604,083
173,237	1,550	1044,828	603,849
174,252	1,556	1043,650	603,153
175,267	1,801	1042,937	603,683
176,281	1,735	1042,699	603,242
177,296	1,608	1042,529	602,604
178,310	1,469	1041,335	601,324
179,325	1,476	1041,112	601,187
180,340	1,774	1040,036	601,713
181,354	1,560	1038,722	600,067
182,369	1,781	1038,296	600,659
183,383	1,650	1038,294	600,100
184,398	1,636	1037,157	599,354
185,413	1,831	1035,551	599,159
186,427	1,913	1035,255	599,274
187,442	1,662	1033,836	597,427
188,456	1,879	1033,760	598,204
189,471	1,752	1032,893	597,165
190,486	1,653	1032,956	596,772
191,500	1,830	1032,077	596,926
192,515	1,880	1030,257	596,036
193,529	1,950	1030,856	596,620
194,544	1,692	1029,867	594,998
195,559	1,956	1028,909	595,445
196,573	1,902	1028,972	595,233
197,588	2,306	1029,013	596,803
198,602	2,686	1027,125	597,160
199,617	2,314	1026,274	595,176
200,632	2,169	1025,511	594,129
201,646	2,071	1025,681	593,808
202,661	1,946	1024,874	592,815
203,675	2,038	1023,971	592,619
204,690	2,153	1024,353	593,251
205,705	3,548	1025,423	599,282
206,719	4,761	1026,203	604,439
207,734	4,385	1023,678	601,452
208,748	3,171	1022,488	595,992
209,763	3,580	1022,190	597,372
210,777	3,928	1021,889	598,514
211,792	4,131	1017,572	596,735
212,807	3,872	1014,305	593,783
213,821	4,111	1011,128	592,805
214,836	3,646	1007,593	588,918
215,850	2,744	1005,110	583,979
216,865	2,566	1003,764	582,482
217,880	3,119	1004,008	584,698
218,894	4,720	1005,407	591,603
219,909	5,413	1004,908	593,918
220,923	5,489	1004,272	593,797
221,938	5,642	1003,206	593,714
222,953	5,539	1003,179	593,267
223,967	5,770	1001,381	593,046
224,982	5,513	1001,051	591,838
225,996	5,576	999,745	591,268
227,011	5,621	998,994	590,960
228,026	4,761	996,299	586,075
229,040	2,992	993,169	577,519
230,055	2,077	991,997	573,351
231,069	2,053	990,465	572,338
232,084	2,016	989,628	571,680
233,099	1,818	988,851	570,451
234,113	1,731	987,696	569,426
235,128	2,246	987,230	571,054
236,142	2,514	986,088	571,365
237,157	2,273	984,234	569,352
238,172	2,167	983,241	568,347
239,186	2,131	981,499	567,174
240,201	1,978	980,557	566,024
241,215	2,031	979,238	565,425
242,230	2,001	978,000	564,563
243,245	2,054	977,022	564,163
244,259	1,982	976,617	563,625
245,274	1,703	975,077	561,667
246,288	1,895	973,711	561,557
247,303	1,940	972,539	561,014
248,317	1,878	972,596	560,785
249,332	2,074	971,375	560,768
250,347	1,885	970,290	559,412
251,361	2,022	969,957	559,690
252,376	1,951	968,601	558,614
253,390	1,573	967,411	556,504
254,405	1,620	965,860	555,748
255,420	1,648	965,727	555,743
256,434	2,095	965,254	557,076
257,449	1,873	964,458	555,767
258,463	1,884	963,483	555,212
259,478	1,919	963,179	555,132
260,493	1,806	961,410	553,666
261,507	2,019	960,607	553,948
262,522	1,624	961,469	552,967
263,536	1,725	959,428	552,128
264,551	1,802	958,913	552,079
265,566	2,073	957,719	552,341
266,580	1,856	956,868	551,030
267,595	1,889	955,494	550,326
268,609	1,971	954,635	550,092
269,624	2,075	953,343	549,693
270,639	1,980	953,182	549,224
271,653	1,995	951,821	548,457
272,668	1,963	951,599	548,181
273,682	1,901	950,761	547,443
274,697	1,893	949,891	546,878
275,712	2,019	948,767	546,652
276,726	2,066	948,176	546,448
277,741	1,898	947,837	545,613
278,755	2,112	947,240	546,005
279,770	2,132	946,407	545,564
280,785	1,915	945,000	543,942
281,799	2,031	944,684	544,142
282,814	1,989	943,904	543,509
283,828	1,937	943,149	542,855
284,843	1,853	942,440	542,116
285,857	1,972	941,269	541,833
286,872	1,977	940,844	541,573
287,887	2,034	939,327	540,871
288,901	1,909	939,675	540,593
289,916	2,019	938,174	540,086
290,930	2,007	937,569	539,663
291,945	2,040	937,066	539,458
292,960	2,079	936,338	539,146
293,974	2,003	935,774	538,519
294,989	2,206	934,611	538,534
296,003	2,316	934,276	538,697
297,018	2,744	933,382	539,662
298,033	2,209	932,134	537,018
299,047	1,989	931,399	535,786
300,062	2,228	931,232	536,502
301,076	2,324	930,392	536,325
302,091	2,202	930,183	535,740
303,106	2,535	929,914	536,727
304,120	4,187	930,667	542,948
305,135	5,514	932,183	548,478
306,149	6,058	931,310	549,842
307,164	5,924	930,805	549,041
308,179	5,796	929,338	547,694
309,193	5,768	929,143	547,445
310,208	5,743	927,807	546,539
311,222	5,869	926,837	546,373
312,237	5,458	926,775	544,867
313,252	5,404	925,717	544,022
314,266	5,466	925,598	544,136
315,281	5,736	925,518	544,999
316,295	5,671	924,703	544,258
317,310	5,198	923,814	542,053
318,325	4,657	920,925	538,441
319,339	2,882	919,445	531,373
320,354	2,229	918,485	528,518
321,368	2,224	917,262	527,763
322,383	1,807	917,613	526,484
323,398	2,056	916,446	526,645
324,412	2,170	915,438	526,431
325,427	2,014	915,544	525,919
326,441	2,056	915,042	525,742
327,456	2,080	914,911	525,719
328,470	1,953	914,350	524,926
329,485	2,083	913,348	524,769
330,500	2,158	912,843	524,702
331,514	2,193	912,209	524,429
332,529	2,197	911,800	524,177
333,543	2,084	911,256	523,442
334,558	1,943	911,686	523,170
335,573	2,883	912,053	526,589
336,587	10,666	869,031	527,208
337,602	57,905	501,045	390,578
338,616	120,081	114,162	112,925
339,631	49,869	15,480	11,622
340,646	225,403	1,698	2,195
341,660	-154,669	-0,273	-0,014
342,675	19,757	-0,629	-0,403
343,689	-28,256	-0,951	-0,436
344,704	-34,097	-1,092	-0,476
345,719	199,074	-0,637	-0,779
346,733	44,447	-1,025	-0,749
347,748	-55,427	-1,305	-0,464
348,762	-126,349	-0,987	-0,116
349,777	-15,729	-1,240	-0,628
350,792	166,457	-0,784	-0,886
351,806	-16,235	-1,162	-0,586
352,821	103,926	-1,025	-0,959
353,835	41,267	-1,118	-0,804
354,850	31,299	-0,973	-0,664
355,865	89,983	-0,803	-0,714
356,879	94,671	-0,849	-0,769
357,894	97,538	-1,276	-1,167
358,908	29,509	-1,670	-1,129
359,923	-22,635	-0,666	-0,319
360,938	-200,000	-0,305	-1,183
361,952	33,475	-1,163	-0,803
362,967	42,557	-0,843	-0,610
363,981	122,799	-0,704	-0,702
364,996	-37,259	-1,079	-0,457
366,010	-33,141	-1,524	-0,670
367,025	-38,738	-1,021	-0,427
368,040	241,257	-0,867	-1,155
369,054	226,881	-0,678	-0,878
370,069	120,902	-0,810	-0,802
371,083	76,792	-1,002	-0,846
372,098	97,811	-0,610	-0,558
373,113	-10,638	-0,633	-0,332
374,127	14,370	-0,911	-0,564
375,142	-75,201	-1,350	-0,381
376,156	130,291	-0,606	-0,618
377,171	-134,446	-0,991	-0,095
378,186	126,127	-1,163	-1,170
379,200	-37,526	-1,313	-0,554
380,215	375,253	-0,683	-1,109
381,229	4,797	-0,772	-0,450
382,244	98,692	-0,960	-0,880
383,259	-99,152	-0,996	-0,199
384,273	4,015	-0,823	-0,477
385,288	-77,663	-0,956	-0,261
386,302	31,556	-0,722	-0,493
387,317	-85,359	-0,987	-0,243
388,332	21,873	-1,088	-0,703
389,346	-80,620	-1,422	0,374
390,361	-76,160	-1,277	-0,356
391,375	-75,557	-0,830	-0,233
392,390	135,441	-0,667	-0,690
393,405	186,359	-0,683	-0,808
394,419	-87,658	-0,971	-0,231
395,434	8,004	-1,149	-0,683
396,448	238,175	-0,652	-0,862
397,463	-120,292	-1,003	-0,134
398,478	22,262	-1,140	-0,738
399,492	-43,276	-1,043	-0,417
400,507	176,711	-0,571	-0,661
401,521	-59,125	-0,670	-0,228
402,536	-23,511	-0,668	-0,317
403,550	97,205	-0,765	-0,697
404,565	8,709	-1,077	-0,643
405,580	56,706	-1,294	-0,999
406,594	-27,681	-0,925	-0,425
407,609	-57,385	-1,124	-0,390
408,623	-47,282	-0,662	-0,255
409,638	-56,624	-1,012	-0,354
410,653	-62,413	-1,117	-0,367
411,667	25,037	-0,828	-0,544
412,682	235,347	-0,554	-0,728
413,696	-69,657	-1,123	-0,339
414,711	135,955	-0,948	-0,981
415,726	31,414	-0,493	-0,336
416,740	382,397	-0,535	-0,875
417,755	19,772	-0,582	-0,371
418,769	2,987	-0,980	-0,563
419,784	-124,297	-0,535	-0,066
420,799	-12,176	-1,098	-0,568
421,813	-87,314	-0,313	-0,075
422,828	76,033	-0,702	-0,589
423,842	251,759	-0,488	-0,660
424,857	132,533	-0,981	-1,004
425,872	-22,675	-1,193	-0,570
426,886	84,957	-0,945	-0,821
427,901	23,986	-1,005	-0,656
428,915	34,705	-0,872	-0,603
429,930	-155,751	-0,781	0,039
430,945	-154,839	-1,069	-0,055
431,959	-33,156	-0,973	-0,426
432,974	271,564	-0,621	-0,869
433,988	20,380	-0,828	-0,529
435,003	241,136	-0,767	-1,016
436,018	115,713	-0,944	-0,915
437,032	114,098	-0,238	-0,230
438,047	47,049	-0,533	-0,392
439,061	-1,875	-0,684	-0,380
440,076	23,097	-0,979	-0,636
441,091	122,220	-0,595	-0,589
442,105	277,745	-0,769	-1,087
443,120	186,832	-0,551	-0,652
444,134	-102,496	-0,804	-0,151
445,149	75,187	-1,007	-0,840
446,163	-50,880	-0,868	-0,322
447,178	700,000	-0,334	-0,761
448,193	136,158	-0,441	-0,455
449,207	-94,706	-0,805	-0,172
450,222	-25,739	-0,375	0,175
451,236	-23,719	-1,029	-0,487
452,251	5,511	-0,885	-0,516
453,266	-47,153	-0,707	-0,272
454,280	25,255	-0,724	-0,475
455,295	80,922	-0,944	-0,806
456,309	-24,231	-0,586	-0,276
457,324	116,572	-0,902	-0,876
458,339	-12,564	-0,832	-0,429
459,353	-25,874	-1,282	-0,595
460,368	-168,007	-1,116	-0,034
461,382	55,392	-0,684	-0,523
462,397	18,663	-0,825	-0,521
463,412	-58,935	-1,313	-0,447
464,426	442,523	-0,488	-0,848
465,441	8,228	-1,114	-0,661
466,455	485,185	-0,346	-0,625
467,470	-16,737	-0,798	-0,398
468,485	-3,503	-0,697	-0,383
469,499	373,194	-0,488	-0,787
470,514	48,246	-1,046	-0,773
471,528	114,906	-0,388	-0,375
472,543	342,494	-0,451	-0,700
473,558	129,807	-0,845	-0,854
474,572	120,973	-0,628	-0,618
475,587	90,704	-0,898	-0,795
476,601	-82,510	-0,778	-0,198
477,616	-130,532	-1,328	-0,140
478,631	20,700	-0,852	-0,544
479,645	7,798	-0,684	-0,404
480,660	277,990	-0,354	-0,500
481,674	248,962	-0,392	-0,526
482,689	-26,611	-0,774	-0,357
483,703	125,317	-0,617	-0,616
484,718	-133,433	-0,627	-0,062
485,733	-151,643	-0,755	-0,043
486,747	6,140	-0,901	-0,527
487,762	-106,846	-0,629	-0,109
488,776	334,142	-0,538	-0,824
489,791	-108,754	-1,067	-0,179
490,806	0,919	-0,723	-0,408
491,820	356,043	-0,675	-1,065
492,835	-109,277	-1,000	0,166
493,849	209,635	-0,599	-0,743
494,864	-51,953	-0,118	-0,043
495,879	-88,803	-0,785	-0,183
496,893	126,906	-0,706	-0,707
497,908	530,670	-0,311	-0,582
498,922	119,611	-0,622	-0,609
499,937	53,181	-0,565	-0,427
500,952	-73,366	-0,708	-0,203
501,966	80,985	-0,726	-0,619
502,981	-147,694	-0,647	0,042
503,995	266,312	-0,437	-0,604
505,010	229,681	-0,258	-0,334
506,025	-63,538	-0,593	-0,191
507,039	-88,592	-0,558	0,130
508,054	98,948	-0,650	-0,593
509,068	94,096	-0,765	-0,684
510,083	89,129	-0,840	-0,738
511,098	2,374	-0,559	-0,318
512,112	32,492	-0,555	-0,378
513,127	95,109	-0,685	-0,615
514,141	184,058	-0,660	-0,771
515,156	-93,238	-0,392	-0,085
516,171	7,056	-0,462	0,271
517,185	107,864	-0,513	-0,482
518,200	71,379	-0,790	-0,646
519,214	40,999	-0,968	-0,688
520,229	146,433	-0,662	-0,701
521,243	83,520	-0,707	-0,608
522,258	-30,151	-0,927	-0,414
523,273	-90,511	-1,000	0,227
524,287	79,843	-0,989	-0,837
525,302	-64,155	-0,768	-0,245
526,316	-69,412	-0,833	-0,250
527,331	-1,705	-0,445	-0,246
528,346	700,000	-0,253	-0,558
529,360	-161,042	-0,820	-0,033
530,375	341,126	-0,243	-0,375
531,389	-72,199	-0,833	-0,242
532,404	22,110	-0,626	-0,402
533,419	-143,654	-0,423	-0,031
534,433	-25,881	-0,650	-0,301
535,448	518,439	-0,315	-0,583
536,462	-177,720	-0,254	-0,005
537,477	-30,753	-0,667	-0,296
538,492	-6,035	-0,801	-0,430
539,506	145,381	-0,516	-0,545
540,521	-9,142	-0,670	-0,352
541,535	608,195	-0,581	-1,146
542,550	251,153	-0,415	-0,557
543,565	-7,042	-0,560	-0,299
544,579	93,321	-0,662	-0,590
545,594	73,980	-0,577	-0,476
546,608	-200,000	-0,123	-0,523
547,623	149,483	-0,224	-0,239
548,638	-124,211	-0,729	-0,089
549,652	550,781	-0,326	-0,619
550,667	294,695	-0,121	-0,174
551,681	32,694	-0,882	-0,599
552,696	-31,491	-0,455	-0,200
553,711	-141,531	-0,794	-0,062
554,725	78,671	-0,870	-0,731
555,740	406,593	-0,541	-0,902
556,754	32,219	-0,820	-0,555
557,769	65,003	-0,531	-0,422
558,783	97,717	-0,427	-0,386
559,798	-200,000	-0,018	-0,309
560,813	-105,466	-0,240	-0,042
561,827	-14,301	-0,896	-0,452
562,842	401,547	-0,418	-0,692
563,856	700,000	-0,077	0,217
564,871	-53,071	-0,509	-0,183
565,886	-78,381	-0,719	-0,193
566,900	-87,908	-0,679	0,159
567,915	-117,045	-0,495	-0,070
568,929	-135,128	-0,444	0,042
569,944	-38,542	-0,540	-0,223
570,959	189,399	-0,533	-0,629
571,973	39,402	-0,533	-0,375
572,988	27,014	-0,957	-0,630
574,002	-32,951	-0,779	-0,339
575,017	49,012	-0,585	-0,431
576,032	-105,168	-1,020	-0,182
577,046	89,811	-0,502	-0,441
578,061	-81,877	-0,533	-0,136
579,075	-30,762	-0,625	-0,277
580,090	133,139	-0,509	-0,517
581,105	241,820	-0,661	-0,870
582,119	-110,993	-0,495	-0,079
583,134	297,678	-0,509	-0,737
584,148	-92,445	-0,765	-0,168
585,163	-4,317	-0,794	-0,430
586,178	40,950	-0,238	0,169
587,192	-141,371	-0,581	-0,046
588,207	-9,363	-0,185	0,097
589,221	339,248	-0,411	-0,631
590,236	-164,427	-0,534	0,019
591,251	-4,125	-0,854	-0,463
592,265	25,679	-0,444	-0,289
593,280	69,420	-0,496	-0,401
594,294	-200,000	0,014	-0,296
595,309	-162,954	-0,624	0,023
596,324	-12,228	-0,806	-0,413
597,338	-76,476	-0,583	-0,160
598,353	-71,398	-0,528	-0,154
599,367	-20,359	-0,494	0,238
600,382	90,827	-0,426	-0,374
601,396	119,192	-0,805	-0,781
602,411	82,903	-0,084	0,072
603,426	290,480	-0,214	-0,306
604,440	-16,928	-0,483	-0,239
605,455	-155,459	-0,448	-0,022
606,469	-200,000	-0,056	-0,616
607,484	700,000	-0,389	-0,958
608,499	7,747	-0,295	0,173
609,513	-200,000	-0,171	-0,726
610,528	-139,001	-0,404	-0,034
611,542	99,973	-0,500	-0,454
612,557	-4,630	-0,406	-0,219
613,572	-161,563	-0,264	0,010
614,586	-159,343	-0,421	-0,018
615,601	279,120	-0,314	-0,440
616,615	67,344	-0,327	-0,261
617,630	366,174	-0,567	-0,899
618,645	85,414	-0,487	-0,419
619,659	-148,766	-0,726	-0,045
620,674	-84,261	-0,153	-0,038
621,688	-112,410	-0,738	0,115
622,703	2,079	-0,651	-0,368
623,718	-17,669	-0,260	-0,127
624,732	-64,326	-0,798	-0,253
625,747	-60,915	-0,397	-0,131
626,761	-200,000	-0,011	0,525
627,776	66,338	-0,633	-0,504
628,791	50,825	-0,797	-0,591
629,805	-200,000	-0,178	-0,623
630,820	298,996	-0,413	-0,597
631,834	-145,031	-1,151	0,081
632,849	-53,650	-0,599	-0,213
633,864	-76,348	-0,193	-0,053
634,878	700,000	-0,361	-0,910
635,893	-200,000	-0,110	-0,414
636,907	700,000	-0,161	0,462
637,922	51,891	-0,568	-0,423
638,936	-154,088	-0,716	-0,037
639,951	-55,389	-0,192	-0,067
640,966	443,450	0,299	-0,516
641,980	-114,977	-0,366	-0,054
642,995	-19,807	-0,312	0,151
644,009	-200,000	-0,143	-0,872
645,024	-49,842	-0,731	-0,271
646,039	-41,288	-0,947	-0,380
647,053	445,118	-0,202	-0,349
648,068	106,735	-0,562	-0,522
649,082	61,657	-0,526	-0,409
650,097	-138,756	-0,802	0,068
651,112	-20,859	-0,567	-0,271
652,126	14,216	-0,477	-0,290
653,141	6,426	-0,194	-0,113
654,155	700,000	-0,099	-0,312
655,170	-96,350	-0,254	0,052
656,185	39,402	-0,364	0,255
657,199	299,309	-0,276	-0,399
658,214	69,978	-0,132	-0,107
659,228	-127,567	-0,312	0,035
660,243	-108,689	-0,153	0,025
661,258	609,716	-0,257	-0,505
662,272	-38,709	-0,504	-0,207
663,287	-200,000	-0,093	-0,349
664,301	-1,602	-0,497	-0,273
665,316	700,000	-0,073	0,242
666,331	-200,000	-0,024	0,276
667,345	-28,887	-0,243	-0,109
668,360	210,011	-0,264	-0,324
669,374	193,907	-0,312	0,370
670,389	206,435	-0,582	-0,709
671,404	245,933	-0,483	-0,638
672,418	24,452	-0,738	-0,476
673,433	-63,900	-0,638	-0,203
674,447	-135,107	-0,708	0,066
675,462	28,364	-0,311	-0,205
676,476	-61,446	-0,451	-0,147
677,491	-200,000	-0,007	-0,607
678,506	119,342	-0,519	-0,502
679,520	330,766	-0,187	-0,282
680,535	316,788	-0,307	-0,455
681,549	245,099	0,144	-0,189
682,564	35,368	-0,573	-0,392
683,579	139,581	-0,282	-0,290
684,593	-162,467	-0,171	0,007
685,608	-137,817	-0,427	-0,037
686,622	-200,000	-0,049	-0,385
687,637	18,269	-0,256	-0,159
688,652	-100,455	-0,705	-0,135
689,666	-31,433	-0,499	-0,218
690,681	310,299	-0,222	-0,326
691,695	-21,644	-0,275	-0,130
692,710	123,987	-0,462	-0,453
693,725	141,183	-0,538	-0,556
694,739	-36,646	-0,612	-0,256
695,754	-169,828	-0,418	-0,012
696,768	108,925	-0,144	-0,135
697,783	-166,339	-0,363	0,012
698,798	120,721	-0,512	-0,496
699,812	144,268	-0,515	-0,536
700,827	52,416	-0,489	-0,363
701,841	700,000	-0,047	0,144
702,856	-200,000	0,036	-0,127
703,871	262,148	-0,434	-0,588
704,885	7,602	-0,586	-0,341
705,900	509,523	-0,402	-0,731
706,914	-200,000	0,083	-0,520
707,929	-122,183	-0,666	-0,084
708,944	103,709	-0,543	-0,497
709,958	-200,000	-0,097	-0,598
710,973	-19,553	-0,141	-0,068
711,987	171,005	-0,173	0,193
713,002	4,202	-0,654	-0,372
714,017	3,902	-0,562	-0,319
715,031	-121,879	-0,275	-0,035
716,046	-200,000	0,031	-0,454
717,060	582,623	0,086	0,166
718,075	443,641	-0,257	0,441
719,089	42,718	-0,415	0,294
720,104	327,313	-0,321	0,480
721,119	-152,941	-0,614	-0,033
722,133	66,638	-0,137	-0,108
723,148	-200,000	-0,120	-0,493
724,162	700,000	-0,167	-0,505
725,177	4,866	-0,339	0,194
726,192	-191,701	-0,367	0,003
727,206	-89,439	-0,413	-0,094
728,221	-53,678	-0,605	-0,214
729,235	287,786	-0,156	-0,220
730,250	37,769	-0,169	0,117
731,265	627,751	-0,238	-0,470
732,279	58,086	-0,474	-0,361
733,294	-40,112	-0,440	-0,178
734,308	-200,000	0,078	0,544
735,323	-117,736	-0,499	-0,069
736,338	53,434	-0,534	-0,398
737,352	64,997	-0,222	-0,175
738,367	9,682	-0,445	-0,262
739,381	525,941	-0,246	-0,452
740,396	-96,345	0,095	0,019
741,411	-116,299	-0,474	-0,068
742,425	-36,244	-0,661	-0,276
743,440	-76,558	-0,228	-0,062
744,454	-129,333	-0,618	-0,066
745,469	72,180	-0,457	-0,370
746,484	92,779	-0,432	-0,379
747,498	-97,340	-0,395	0,079
748,513	-190,051	-0,399	0,003
749,527	-120,243	-0,615	0,081
750,542	74,716	-0,605	0,495
751,557	-0,291	-0,447	-0,246
752,571	-68,054	-0,275	0,083
753,586	269,066	-0,281	0,384
754,600	6,166	0,166	-0,095
755,615	-61,943	-0,196	0,064
756,629	700,000	-0,125	-0,274
757,644	-159,364	-0,542	0,023
758,659	-62,055	-0,669	-0,216
759,673	-76,494	-0,610	0,166
760,688	-55,367	-0,302	-0,105
761,702	454,661	-0,219	-0,379
762,717	172,571	-0,173	-0,194
763,732	700,000	-0,124	-0,324
764,746	-73,569	-0,346	-0,098
765,761	-200,000	-0,019	-0,471
766,775	-200,000	0,018	-0,358
767,790	450,893	-0,208	-0,358
768,805	622,097	-0,215	-0,422
769,819	-26,191	-0,824	-0,375
770,834	204,177	-0,295	-0,355
771,848	538,872	-0,182	-0,338
772,863	-146,699	-0,599	-0,040
773,878	104,014	-0,319	-0,291
774,892	694,279	-0,250	-0,511
775,907	57,048	-0,409	-0,309
776,921	-65,894	-0,642	-0,198
777,936	95,120	-0,559	-0,495
778,951	-97,329	0,234	0,047
779,965	-200,000	0,022	-0,630
780,980	-200,000	0,025	-0,177
781,994	-200,000	-0,009	-0,216
783,009	-200,000	-0,032	-0,366
784,024	156,980	-0,193	-0,208
785,038	57,737	-0,124	0,094
786,053	-200,000	-0,149	-0,614
787,067	-200,000	-0,042	-0,405
788,082	-200,000	0,069	-0,253
789,097	-200,000	-0,042	0,484
790,111	-68,883	-0,257	-0,077
791,126	61,574	-0,625	-0,482
792,140	-118,851	-0,552	-0,074
793,155	-200,000	-0,033	0,499
794,169	681,875	-0,256	-0,519
795,184	424,820	-0,217	-0,363
796,199	18,746	-0,293	-0,182
797,213	700,000	-0,306	-0,683
798,228	-164,290	-0,359	-0,013
799,242	24,740	-0,291	-0,186
800,257	36,958	0,130	-0,089
801,272	-70,295	-0,651	-0,191
802,286	210,822	-0,476	-0,580
803,301	-7,954	-0,306	-0,160
804,315	54,599	-0,412	-0,308
805,330	-173,838	-0,326	-0,007
806,345	92,873	-0,146	0,128
807,359	-200,000	0,016	-0,496
808,374	700,000	0,187	-0,486
809,388	-200,000	0,023	-0,326
810,403	700,000	-0,234	-0,675
811,418	-127,211	-0,438	-0,049
812,432	-66,794	-0,420	0,128
813,447	-66,346	-0,278	0,085
814,461	-200,000	0,162	-0,577
815,476	-32,676	-0,270	-0,116
816,491	420,600	-0,409	-0,682
817,505	-38,374	-0,601	-0,245
818,520	700,000	-0,100	0,338
819,534	-188,865	-0,289	-0,003
820,549	248,729	-0,037	0,049
821,564	185,422	0,135	-0,155
822,578	259,837	0,113	0,152
823,593	-200,000	0,012	0,285
824,607	-82,089	0,093	-0,023
825,622	0,635	-0,171	-0,094
826,637	-70,786	-0,629	-0,183
827,651	700,000	-0,210	-0,430
828,666	-84,161	-0,021	-0,005
829,680	-167,691	-0,441	0,013
830,695	114,376	-0,463	-0,437
831,709	190,760	-0,184	0,215
832,724	663,699	0,125	-0,251
833,739	-83,671	-0,236	-0,058
834,753	243,738	-0,059	0,077
835,768	532,692	-0,144	-0,265
836,782	310,176	-0,344	0,500
837,797	363,203	0,205	-0,320
838,812	-75,985	-0,490	0,133
839,826	-50,158	-0,332	0,121
840,841	40,001	-0,324	-0,225
841,855	75,823	-0,398	-0,325
842,870	-122,114	-0,181	0,023
843,885	346,763	-0,146	-0,223
844,899	218,732	-0,086	-0,107
845,914	-155,441	-0,251	0,012
846,928	153,171	-0,150	-0,158
847,943	-147,987	-0,302	-0,019
848,958	-104,417	-0,046	-0,008
849,972	-127,229	-0,143	0,016
850,987	29,359	-0,211	-0,139
852,001	347,451	-0,251	0,383
853,016	-47,832	-0,358	-0,133
854,031	-87,060	-0,698	-0,163
855,045	194,279	-0,393	-0,461
856,060	700,000	-0,120	0,323
857,074	-8,184	-0,121	-0,063
858,089	15,770	-0,466	0,283
859,104	-200,000	-0,079	0,303
860,118	-200,000	0,004	0,255
861,133	-105,815	-0,204	0,035
862,147	-200,000	0,016	0,109
863,162	700,000	-0,118	-0,273
864,177	317,962	-0,162	-0,237
865,191	18,161	-0,555	-0,341
866,206	240,992	-0,421	-0,544
867,220	-133,831	-0,625	0,059
868,235	33,044	-0,257	-0,172
869,250	226,562	-0,172	-0,215
870,264	-200,000	-0,137	-0,952
871,279	171,227	-0,179	-0,199
872,293	-200,000	0,119	0,657
873,308	50,428	0,114	0,083
874,322	688,619	-0,221	-0,448
875,337	-23,476	-0,344	-0,159
876,352	-95,675	-0,059	0,012
877,366	-200,000	-0,029	-0,469
878,381	700,000	-0,204	0,528
879,395	-200,000	-0,068	0,239
880,410	14,189	-0,364	-0,219
881,425	-104,206	-0,261	-0,046
882,439	68,860	-0,496	-0,392
883,454	166,549	-0,224	0,245
884,468	42,841	-0,581	-0,408
885,483	-111,435	-0,338	0,053
886,498	-200,000	0,076	-0,459
887,512	635,989	-0,142	-0,279
888,527	-2,982	-0,410	-0,220
889,541	-13,423	-0,372	0,185
890,556	700,000	0,100	-0,239
891,571	587,644	0,127	0,242
892,585	-200,000	-0,030	-0,362
893,600	-49,585	-0,139	-0,051
894,614	399,442	-0,134	0,217
895,629	8,895	-0,439	-0,255
896,644	-94,665	-0,502	0,104
897,658	700,000	-0,076	0,258
898,673	34,058	-0,306	-0,205
899,687	700,000	-0,138	-0,370
900,702	472,193	-0,302	-0,526
901,717	-166,685	-0,155	-0,005
902,731	-200,000	0,069	-0,313
903,746	700,000	0,114	0,374
904,760	-200,000	-0,027	-0,626
905,775	447,850	0,149	0,253
906,790	-70,307	-0,712	0,207
907,804	45,171	-0,384	-0,272
908,819	-70,317	-0,458	-0,133
909,833	107,921	-0,280	-0,257
910,848	-26,981	-0,579	-0,260
911,862	-87,712	-0,584	0,135
912,877	-126,334	-0,242	-0,027
913,892	-80,778	-0,273	-0,069
914,906	-25,545	0,047	0,021
915,921	17,184	-0,239	0,146
916,935	535,900	-0,110	0,201
917,950	86,873	-0,369	-0,314
918,965	78,695	-0,512	-0,421
919,979	700,000	-0,140	-0,383
920,994	-200,000	0,067	-0,474
922,008	-26,195	-0,493	0,222
923,023	-200,000	0,026	-0,122
924,038	204,767	0,050	0,060
925,052	-97,745	-0,246	0,049
926,067	31,939	-0,250	-0,165
927,081	272,483	0,203	-0,277
928,096	-177,462	-0,093	-0,002
929,111	280,260	-0,184	-0,254
930,125	-200,000	0,012	-0,355
931,140	-200,000	-0,071	-0,424
932,154	700,000	-0,223	-0,626
933,169	-6,611	-0,814	-0,425
934,184	-200,000	-0,005	0,271
935,198	-200,000	0,033	-0,242
936,213	-42,917	-0,640	0,249
937,227	-127,916	-0,433	-0,047
938,242	51,081	0,401	-0,292
939,257	-200,000	0,154	-0,531
940,271	-24,510	-0,383	0,175
941,286	112,462	-0,561	-0,522
942,300	133,644	-0,248	0,246
943,315	-94,398	-0,740	0,154
944,330	-200,000	0,034	0,635
945,344	-200,000	0,067	0,552
946,359	238,085	-0,177	0,226
947,373	-200,000	0,038	-0,484
948,388	-200,000	-0,076	-0,287
949,402	25,211	0,335	-0,213
950,417	-200,000	-0,125	-0,526
951,432	700,000	-0,088	0,188
952,446	31,627	0,106	-0,070
953,461	216,476	-0,109	0,134
954,475	695,544	-0,098	-0,199
955,490	700,000	-0,241	-0,679
956,505	327,419	0,014	0,021
957,519	-107,590	-0,119	-0,020
958,534	-200,000	0,032	0,284
959,548	-200,000	0,032	-0,157
960,563	-200,000	-0,021	-0,070
961,578	-200,000	-0,024	-0,314
962,592	-200,000	0,085	-0,422
963,607	29,028	0,258	0,168
964,621	301,692	-0,114	-0,163
965,636	-92,871	-0,146	-0,031
966,651	-118,308	0,146	0,020
967,665	700,000	-0,103	-0,284
968,680	700,000	-0,160	0,361
969,694	39,659	-0,094	0,064
970,709	53,295	-0,619	-0,454
971,724	-137,254	-0,581	-0,050
972,738	251,960	-0,144	-0,188
973,753	304,761	-0,230	-0,329
974,767	700,000	-0,142	-0,427
975,782	-200,000	-0,016	0,095
976,797	557,335	-0,184	-0,341
977,811	-200,000	0,049	-0,397
978,826	86,860	-0,499	-0,422
979,840	-67,425	-0,280	-0,084
980,855	239,938	-0,429	-0,549
981,870	700,000	-0,112	-0,262
982,884	-114,157	0,467	0,069
983,899	-80,656	-0,334	-0,085
984,913	700,000	-0,121	-0,390
985,928	-200,000	0,001	0,040
986,942	700,000	-0,100	-0,215
987,957	-200,000	0,004	0,313
988,972	335,202	-0,228	-0,340
989,986	-126,728	-0,389	-0,044
991,001	217,309	-0,198	-0,242
992,015	188,374	-0,362	-0,415
993,030	-200,000	-0,090	0,363
994,045	292,076	-0,391	-0,547
995,059	601,881	-0,226	-0,432
996,074	72,408	0,186	-0,148
997,088	700,000	-0,139	0,327
998,103	-12,463	-0,414	-0,207
999,118	-37,614	-0,293	0,119
1000,132	247,458	-0,175	-0,227
1001,147	-16,719	0,168	0,081
1002,161	487,605	-0,213	0,373
1003,176	401,910	-0,164	-0,264
1004,191	-2,395	0,145	-0,078
1005,205	-200,000	0,038	0,328
1006,220	622,084	-0,036	0,069
1007,234	-200,000	-0,014	0,627
1008,249	-23,877	-0,200	-0,091
1009,264	8,214	0,131	-0,075
1010,278	7,049	-0,212	0,121
1011,293	8,977	-0,200	0,116
1012,307	-136,998	-0,465	-0,040
1013,322	64,628	-0,357	-0,275
1014,337	-200,000	-0,041	-0,381
1015,351	-17,765	-0,221	-0,106
1016,366	-200,000	0,026	0,408
1017,380	700,000	-0,091	0,276
1018,395	134,993	-0,156	0,155
1019,410	-71,575	-0,340	0,097
1020,424	170,459	-0,312	-0,343
1021,439	-52,309	0,332	-0,117
1022,453	143,185	0,313	-0,319
1023,468	123,922	-0,293	0,282
1024,483	-200,000	-0,062	-0,347
1025,497	134,513	0,265	-0,263
1026,512	-200,000	0,044	0,164
1027,526	700,000	0,183	-0,401
1028,541	-200,000	0,002	0,109
1029,555	112,696	0,063	-0,058
1030,570	1,202	0,283	-0,155
1031,585	-200,000	0,015	-0,117
1032,599	646,468	-0,189	-0,371
1033,614	212,626	-0,437	-0,528
1034,628	-61,326	-0,128	-0,041
1035,643	-42,620	-0,428	-0,166
1036,658	-43,135	-0,387	-0,149
1037,672	-79,245	-0,250	-0,064
1038,687	101,372	-0,144	0,128
1039,701	-200,000	-0,008	0,093
1040,716	-35,784	0,235	-0,097
1041,731	-59,146	-0,201	-0,066
1042,745	40,350	-0,196	-0,135
1043,760	-200,000	0,110	-0,622
1044,774	-200,000	-0,041	-0,251
1045,789	127,866	-0,157	0,152
1046,804	643,456	-0,395	0,773
1047,818	-200,000	0,008	-0,170
1048,833	-60,991	0,354	-0,114
1049,847	150,730	0,134	-0,139
1050,862	-200,000	0,004	-0,080
1051,877	240,493	-0,166	-0,212
1052,891	490,549	-0,117	-0,206
1053,906	-200,000	0,012	-0,418
1054,920	-200,000	-0,013	-0,268
1055,935	700,000	-0,220	-0,544
1056,950	-96,563	-0,236	-0,047
1057,964	-200,000	0,017	-0,214
1058,979	-200,000	-0,147	-0,582
1059,993	106,717	-0,344	-0,311
1061,008	-200,000	-0,040	-0,154
1062,023	-200,000	-0,036	-0,136
1063,037	-200,000	0,011	0,083
1064,052	4,641	0,104	-0,058
1065,066	700,000	0,031	0,089
1066,081	334,168	-0,266	0,393
1067,095	-200,000	-0,020	-0,414
1068,110	236,845	-0,202	0,255
1069,125	120,186	-0,426	-0,403
1070,139	262,602	-0,105	0,139
1071,154	-200,000	-0,058	-0,216
1072,168	503,114	-0,264	-0,468
1073,183	-109,316	-0,127	-0,020
1074,198	700,000	-0,129	-0,304
1075,212	700,000	-0,127	-0,334
1076,227	32,420	-0,310	-0,204
1077,241	-154,987	-0,465	0,023
1078,256	135,217	-0,363	-0,360
1079,271	372,394	-0,267	-0,415
1080,285	68,041	-0,503	0,392
1081,300	-200,000	-0,094	-0,570
1082,314	-200,000	-0,077	-0,470
1083,329	142,512	-0,229	-0,232
1084,344	-200,000	-0,055	0,204
1085,358	226,638	-0,055	0,068
1086,373	700,000	-0,104	-0,267
1087,387	-200,000	-0,021	-0,081
1088,402	237,256	-0,170	-0,215
1089,417	109,685	-0,373	-0,340
1090,431	-34,211	-0,537	-0,224
1091,446	-135,648	-0,367	-0,033
1092,460	700,000	-0,174	-0,373
1093,475	85,481	-0,254	-0,213
1094,490	26,980	-0,261	-0,166
1095,504	700,000	0,111	-0,276
1096,519	435,076	0,208	0,346
1097,533	-200,000	-0,016	-0,454
1098,548	700,000	0,125	-0,342
1099,563	700,000	-0,053	0,149
1100,577	107,138	-0,265	-0,240
1101,592	135,682	0,088	-0,087
1102,606	-85,777	-0,090	-0,021
1103,621	-97,153	-0,352	0,069
1104,635	51,040	-0,185	-0,134
1105,650	36,230	-0,496	-0,333
1106,665	-97,825	-0,357	-0,070
1107,679	28,372	0,133	0,086
1108,694	-131,070	0,181	0,018
1109,708	-200,000	0,056	0,466
1110,723	-157,269	0,210	0,010
1111,738	700,000	-0,075	0,204
1112,752	-77,846	-0,105	-0,027
1113,767	375,207	0,163	-0,254
1114,781	-200,000	-0,315	0,001
1115,796	-97,126	-0,365	-0,072
1116,811	-200,000	-0,083	0,382
1117,825	-200,000	0,035	-0,481
1118,840	700,000	0,099	-0,314
1119,854	-200,000	0,082	-0,424
1120,869	191,142	0,279	0,320
1121,884	700,000	0,135	-0,318
1122,898	234,678	-0,106	0,133
1123,913	379,104	-0,168	0,262
1124,927	-148,361	-0,435	0,027
1125,942	665,955	-0,216	0,426
1126,957	700,000	-0,164	-0,368
1127,971	88,736	-0,218	0,185
1128,986	-91,636	-0,501	-0,108
1130,000	-200,000	-0,084	0,333
1131,015	128,228	-0,167	0,161
1132,030	-200,000	-0,115	0,631
1133,044	-30,137	-0,479	0,206
1134,059	-165,316	-0,652	0,021
1135,073	73,136	-0,122	0,097
1136,088	700,000	0,069	0,224
1137,103	-84,086	0,144	0,034
1138,117	54,175	-0,328	0,240
1139,132	-85,988	-0,603	-0,141
1140,146	333,293	-0,023	0,034
1141,161	60,377	-0,226	-0,170
1142,176	-76,390	-0,285	-0,076
1143,190	-200,000	-0,054	0,208
1144,205	468,864	-0,066	0,113
1145,219	700,000	-0,242	-0,568
1146,234	-43,848	-0,107	-0,041
1147,248	-92,822	-0,540	0,114
1148,263	141,848	-0,338	0,340
1149,278	-61,826	-0,120	-0,038
1150,292	-200,000	-0,053	0,508
1151,307	-200,000	-0,118	0,701
1152,321	-25,324	-0,341	-0,153
1153,336	-63,580	-0,249	-0,077
1154,351	700,000	-0,195	0,528
1155,365	259,412	-0,220	0,289
1156,380	700,000	-0,141	0,458
1157,394	-135,640	-0,619	-0,055
1158,409	67,305	-0,109	0,085
1159,424	-200,000	-0,105	0,780
1160,438	-200,000	-0,121	-0,684
1161,453	32,163	-0,201	0,131
1162,467	114,891	-0,169	-0,157
1163,482	-200,000	-0,019	-0,589
1164,497	135,006	-0,356	-0,351
1165,511	28,843	-0,397	0,255
1166,526	-106,584	-0,494	0,083
1167,540	63,447	0,241	0,183
1168,555	-200,000	-0,027	-0,244
1169,570	-200,000	0,006	-0,059
1170,584	179,976	0,129	0,143
1171,599	325,869	-0,215	-0,313
1172,613	-200,000	0,017	0,379
1173,628	93,488	0,396	-0,340
1174,643	29,940	-0,050	0,032
1175,657	-73,131	0,058	0,016
1176,672	-55,674	0,341	-0,115
1177,686	-200,000	0,004	0,301
1178,701	112,407	-0,482	-0,442
1179,716	-98,159	-0,435	0,084
1180,730	-62,115	-0,410	0,129
1181,745	40,804	-0,189	0,129
1182,759	-200,000	-0,109	-0,394
1183,774	-200,000	-0,002	-0,009
1184,788	103,468	0,351	-0,312
1185,803	502,440	0,132	0,231
1186,818	-109,985	0,453	0,071
1187,832	-200,000	-0,025	0,124
1188,847	45,353	-0,277	-0,193
1189,861	252,949	-0,134	0,174
1190,876	254,505	-0,172	-0,223
1191,891	700,000	-0,257	-0,626
1192,905	136,305	-0,149	0,147
1193,920	4,375	0,408	-0,226
1194,934	489,559	0,126	-0,219
1195,949	102,905	0,173	-0,153
1196,964	23,953	0,167	0,104
1197,978	691,706	-0,148	0,294
1198,993	-200,000	0,037	0,226
1200,007	-200,000	0,014	-0,082
1201,022	-69,214	-0,110	-0,032
1202,037	-200,000	0,118	-0,797
1203,051	591,394	0,119	0,223
1204,066	-200,000	-0,107	-0,598
1205,080	448,283	0,226	-0,378
1206,095	-94,061	0,160	-0,033
1207,110	-200,000	-0,118	0,435
1208,124	197,823	0,090	0,104
1209,139	168,128	0,157	-0,169
1210,153	266,280	0,078	-0,103
1211,168	-200,000	0,051	-0,363
1212,183	700,000	-0,109	0,357
1213,197	700,000	-0,170	-0,453
1214,212	-29,819	-0,194	0,083
1215,226	-200,000	-0,066	-0,331
1216,241	425,045	-0,234	-0,383
1217,256	-35,844	0,221	0,090
1218,270	-31,135	0,122	0,052
1219,285	-25,485	-0,171	-0,076
1220,299	111,257	0,169	0,154
1221,314	-53,451	0,112	-0,039
1222,328	485,211	0,256	0,442
1223,343	-200,000	-0,019	0,305
1224,358	700,000	-0,225	-0,613
1225,372	302,121	0,178	-0,250
1226,387	-69,292	0,073	0,021
1227,401	-200,000	-0,053	0,193
1228,416	471,043	-0,142	-0,243
1229,431	-161,638	-0,171	-0,007
1230,445	200,168	-0,078	-0,090
1231,460	314,926	-0,074	0,105
1232,474	700,000	0,120	-0,366
1233,489	-104,069	0,353	-0,062
1234,504	160,774	0,240	-0,253
1235,518	8,182	0,387	0,219
1236,533	-200,000	-0,028	0,177
1237,547	176,448	-0,224	-0,246
1238,562	22,502	-0,019	-0,012
1239,577	653,281	0,175	-0,341
1240,591	158,552	0,292	-0,306
1241,606	-200,000	-0,002	-0,166
1242,620	-200,000	0,047	0,268
1243,635	-200,000	0,045	0,310
1244,650	174,479	0,294	-0,321
1245,664	106,172	0,053	-0,047
1246,679	-80,344	-0,155	0,039
1247,693	700,000	-0,124	-0,301
1248,708	17,638	-0,357	-0,214
1249,723	77,874	-0,447	-0,360
1250,737	211,995	-0,246	-0,293
1251,752	51,674	0,265	0,190
1252,766	202,877	0,425	-0,496
1253,781	-200,000	-0,007	0,049
1254,796	-200,000	-0,062	0,287
1255,810	195,503	-0,227	-0,260
1256,825	-200,000	-0,052	-0,360
1257,839	-99,595	0,151	-0,028
1258,854	-17,963	0,164	-0,077
1259,868	-90,826	-0,046	0,010
1260,883	-134,547	-0,397	0,036
1261,898	-200,000	-0,154	0,546
1262,912	95,071	-0,375	0,322
1263,927	-76,811	-0,154	0,040
1264,941	-200,000	0,043	-0,294
1265,956	-200,000	0,002	-0,197
1266,971	-59,815	-0,151	0,049
1267,985	53,939	-0,347	0,251
1269,000	-132,430	-0,381	0,037
1270,014	700,000	-0,145	-0,311
1271,029	343,782	-0,027	0,041
1272,044	-200,000	-0,045	0,210
1273,058	-96,878	-0,461	-0,091
1274,073	700,000	0,081	-0,252
1275,087	362,194	-0,101	0,154
1276,102	-105,418	-0,545	0,093
1277,117	26,733	-0,104	-0,066
1278,131	-200,000	0,072	-0,366
1279,146	700,000	0,008	-0,016
1280,160	54,138	0,273	-0,198
1281,175	-200,000	0,024	-0,132
1282,190	-69,050	-0,164	-0,047
1283,204	29,383	-0,256	0,164
1284,219	700,000	-0,141	0,300
1285,233	-102,459	0,283	-0,051
1286,248	-122,240	-0,127	0,015
1287,263	46,804	-0,422	0,295
1288,277	490,408	-0,244	0,422
1289,292	-119,178	-0,193	-0,025
1290,306	281,295	-0,057	-0,076
1291,321	461,820	-0,203	-0,342
1292,336	-134,981	0,212	-0,019
1293,350	-2,149	0,359	0,189
1294,365	572,653	-0,114	-0,209
1295,379	-56,185	-0,419	0,140
1296,394	700,000	0,021	-0,055
1297,409	17,842	-0,097	0,058
1298,423	183,051	0,104	-0,115
1299,438	-54,544	0,344	0,117
1300,452	491,945	-0,126	0,219
1301,467	700,000	-0,232	0,580
1302,481	700,000	-0,165	-0,479
1303,496	622,695	-0,109	0,207
1304,511	470,645	-0,105	0,178
1305,525	-200,000	0,021	-0,366
1306,540	-66,543	0,330	0,098
1307,554	136,835	0,115	-0,113
1308,569	-130,863	0,290	0,029
1309,584	700,000	-0,027	0,057
1310,598	519,085	-0,263	0,464
1311,613	329,366	-0,014	0,020
1312,627	700,000	-0,070	0,156
1313,642	194,359	0,166	0,190
1314,657	160,120	0,233	-0,245
1315,671	-100,409	0,185	0,034
1316,686	98,755	-0,127	0,110
1317,700	-200,000	0,024	-0,098
1318,715	575,692	-0,120	-0,221
1319,730	67,528	-0,262	0,201
1320,744	104,340	-0,315	0,279
1321,759	700,000	-0,247	0,562
1322,773	115,301	-0,299	0,275
1323,788	-200,000	0,031	-0,379
1324,803	-162,780	-0,074	0,003
1325,817	142,602	-0,125	0,125
1326,832	-200,000	-0,041	0,482
1327,846	-200,000	0,097	-0,449
1328,861	214,764	-0,116	0,138
1329,876	29,299	-0,398	0,254
1330,890	3,378	-0,251	0,137
1331,905	-20,359	-0,290	0,133
1332,919	-147,220	0,440	-0,028
1333,934	243,669	0,206	-0,261
1334,949	-161,396	-0,307	-0,012
1335,963	157,523	-0,176	0,184
1336,978	390,752	0,188	-0,294
1337,992	700,000	-0,110	-0,224
1339,007	75,536	-0,270	0,214
1340,021	-200,000	-0,083	0,446
1341,036	503,511	-0,189	0,329
1342,051	26,895	0,428	0,269
1343,065	140,160	0,269	0,266
1344,080	67,728	-0,136	-0,104
1345,094	-80,561	-0,203	0,050
1346,109	216,975	-0,180	-0,215
1347,124	-200,000	0,141	-0,498
1348,138	-65,562	-0,204	-0,061
1349,153	-85,475	-0,337	-0,078
1350,167	-200,000	0,025	0,577
