DTS Sentinel unit serial number:	SN409017Multiplexer serial number:	ORYXHardware model number:	OX4Software version number:	ORYX F/W v1,02 Oryx Data Collector v3.7.1.3data status	okinstallation	speulderbos2017nov21differential loss correction	single-endedforward channel	channel 1reverse channel	N/Adate	2018/01/07time	20:23:49forward acquisition time	30,00reverse acquisition time	0,00gamma	498,7988k internal	0,2785k external	0,2785temperature offset calibration	1,0000default loss term (dB/km)	0,3730temperature slope calibration	0,7000multiplexer offset coefficient	1,0000multiplexer slope coefficient	1,0000fibre end	0,00T internal ref (°C)	15,34T ext. ref 1 (°C)	3,12T ext. ref 2 (°C)	1258,77length (m)	temperature (°C)	Stokes	anti-Stokes-747,000	-200,000	0,010	-0,130
-745,985	93,737	-0,761	-0,721
-744,971	-141,545	-0,112	0,009
-743,956	-40,280	-0,250	0,108
-742,942	-90,259	0,586	0,141
-741,927	-23,719	-0,462	-0,231
-740,912	54,532	0,147	0,118
-739,898	-52,408	-0,299	0,115
-738,883	-19,787	0,474	0,244
-737,869	-101,843	-0,389	-0,078
-736,854	-107,477	0,611	-0,111
-735,839	-91,059	-0,237	-0,057
-734,825	-32,920	0,415	0,192
-733,810	-94,547	-0,414	0,094
-732,796	-183,404	-0,388	0,006
-731,781	-200,000	0,044	-0,531
-730,766	-200,000	-0,027	0,545
-729,752	56,984	-0,445	-0,362
-728,737	-200,000	-0,042	-0,557
-727,723	-87,118	-0,271	0,069
-726,708	479,606	0,060	0,115
-725,694	700,000	0,062	0,153
-724,679	700,000	-0,058	0,136
-723,664	700,000	-0,117	0,279
-722,650	154,703	-0,388	-0,446
-721,635	58,612	-0,386	-0,317
-720,621	-66,976	-0,262	0,086
-719,606	185,807	-0,163	-0,202
-718,591	45,052	-0,838	-0,644
-717,577	-200,000	-0,034	-0,415
-716,562	253,957	0,298	0,426
-715,548	-111,416	-0,629	-0,106
-714,533	-200,000	-0,063	0,639
-713,518	96,094	0,494	-0,472
-712,504	-123,597	-0,232	0,030
-711,489	-175,995	0,136	0,003
-710,475	-200,000	0,081	-0,452
-709,460	-97,501	-0,219	0,047
-708,445	-200,000	-0,084	-0,598
-707,431	646,922	-0,127	-0,273
-706,416	306,929	-0,186	-0,290
-705,402	172,507	-0,077	-0,093
-704,387	-129,287	0,445	0,051
-703,372	555,905	-0,424	-0,857
-702,358	700,000	0,059	0,133
-701,343	700,000	-0,064	0,177
-700,329	-200,000	0,008	0,460
-699,314	-200,000	0,095	0,492
-698,299	-136,906	-0,517	-0,049
-697,285	-200,000	-0,050	0,713
-696,270	120,453	0,568	0,590
-695,256	-20,656	-0,287	-0,147
-694,241	-186,203	0,729	-0,009
-693,226	659,382	0,124	0,268
-692,212	-24,408	0,121	0,060
-691,197	128,814	0,253	-0,270
-690,183	700,000	0,055	0,140
-689,168	-34,486	-0,278	-0,126
-688,154	-139,029	-0,498	0,044
-687,139	-81,600	0,290	-0,079
-686,124	-67,524	0,100	-0,032
-685,110	-74,110	-0,435	-0,131
-684,095	304,811	-0,244	-0,379
-683,081	-157,116	0,270	-0,014
-682,066	-200,000	0,016	0,186
-681,051	-58,457	-0,355	-0,128
-680,037	700,000	0,022	-0,069
-679,022	-52,346	0,277	0,107
-678,008	700,000	0,215	0,665
-676,993	700,000	-0,198	0,459
-675,978	-131,216	0,479	-0,052
-674,964	700,000	0,154	-0,539
-673,949	33,341	-0,483	-0,349
-672,935	700,000	0,109	-0,298
-671,920	597,676	0,361	-0,749
-670,905	700,000	-0,060	-0,164
-669,891	-200,000	0,034	-0,131
-668,876	210,481	0,207	-0,272
-667,862	-103,587	0,388	-0,075
-666,847	3,017	-0,284	-0,172
-665,832	659,674	0,072	0,154
-664,818	65,410	0,266	0,225
-663,803	-4,337	0,098	-0,056
-662,789	-200,000	-0,048	0,317
-661,774	-200,000	0,025	0,142
-660,759	-84,248	0,120	0,031
-659,745	191,600	0,119	0,150
-658,730	-101,357	-0,609	-0,123
-657,716	21,218	0,405	0,274
-656,701	-200,000	0,007	0,475
-655,686	54,032	-0,292	-0,234
-654,672	700,000	-0,097	-0,254
-653,657	644,250	0,187	0,398
-652,643	-200,000	0,031	0,275
-651,628	-122,305	0,181	-0,024
-650,613	72,166	0,239	-0,207
-649,599	-115,997	-0,354	0,055
-648,584	34,679	-0,149	-0,109
-647,570	181,982	-0,244	-0,299
-646,555	134,758	-0,546	-0,591
-645,541	343,540	0,110	0,181
-644,526	-200,000	-0,099	0,913
-643,511	-95,740	0,529	-0,117
-642,497	-200,000	-0,083	0,352
-641,482	-200,000	-0,007	0,148
-640,468	-96,712	-0,195	0,042
-639,453	-68,544	-0,122	-0,039
-638,438	198,273	0,362	0,461
-637,424	-200,000	-0,002	-0,148
-636,409	250,433	-0,097	0,137
-635,395	382,520	0,236	-0,405
-634,380	-100,153	-0,558	-0,115
-633,365	-48,730	0,200	-0,079
-632,351	-157,047	0,443	-0,022
-631,336	-97,960	-0,156	0,033
-630,322	-36,912	-0,595	-0,265
-629,307	62,704	-0,304	-0,253
-628,292	-200,000	0,039	0,163
-627,278	-77,339	0,572	-0,164
-626,263	700,000	0,123	-0,435
-625,249	238,825	0,169	0,234
-624,234	13,989	-0,095	-0,062
-623,219	-174,695	0,437	-0,010
-622,205	128,542	0,504	0,535
-621,190	187,400	-0,121	-0,151
-620,176	-60,341	-0,557	-0,196
-619,161	700,000	0,155	0,530
-618,146	407,584	0,334	0,590
-617,132	163,197	0,098	0,115
-616,117	467,915	-0,171	-0,320
-615,103	99,254	-0,070	0,067
-614,088	-200,000	0,005	0,071
-613,073	10,631	-0,262	0,166
-612,059	278,076	0,291	0,432
-611,044	-200,000	0,110	-0,624
-610,030	-200,000	-0,015	0,106
-609,015	-117,985	0,242	-0,036
-608,001	-3,172	-0,572	0,331
-606,986	238,166	0,122	-0,169
-605,971	25,281	-0,318	0,220
-604,957	99,539	-0,073	-0,071
-603,942	101,085	-0,078	-0,075
-602,928	-94,978	-0,373	-0,083
-601,913	231,205	-0,065	0,089
-600,898	205,305	-0,121	0,157
-599,884	-200,000	-0,014	0,071
-598,869	484,952	-0,157	-0,298
-597,855	431,316	-0,238	-0,430
-596,840	-109,156	-0,118	-0,021
-595,825	-200,000	-0,022	-0,329
-594,811	32,289	-0,206	-0,148
-593,796	700,000	-0,188	0,600
-592,782	700,000	-0,237	0,644
-591,767	421,565	0,083	-0,148
-590,752	-34,239	-0,548	0,249
-589,738	430,283	0,424	0,766
-588,723	177,540	0,272	-0,330
-587,709	-109,350	0,551	-0,096
-586,694	700,000	0,039	0,101
-585,679	-200,000	0,012	-0,308
-584,665	-200,000	-0,020	0,258
-583,650	-200,000	0,091	-0,341
-582,636	-96,385	0,342	0,075
-581,621	-162,172	-0,189	0,008
-580,606	411,718	-0,110	-0,195
-579,592	700,000	-0,052	-0,120
-578,577	-200,000	-0,118	0,532
-577,563	-191,338	0,262	-0,002
-576,548	92,842	-0,031	-0,029
-575,533	-76,016	-0,604	-0,176
-574,519	133,265	0,073	0,079
-573,504	574,140	0,111	-0,226
-572,490	-200,000	0,003	-0,197
-571,475	-200,000	0,006	-0,101
-570,461	-115,872	0,464	0,071
-569,446	38,136	-0,446	-0,329
-568,431	-74,879	0,354	0,105
-567,417	164,799	-0,120	0,141
-566,402	498,443	-0,108	0,207
-565,388	271,648	-0,207	-0,304
-564,373	-14,144	0,138	0,074
-563,358	700,000	0,023	-0,077
-562,344	30,912	-0,325	-0,231
-561,329	84,502	0,131	0,119
-560,315	83,042	-0,489	-0,442
-559,300	19,216	-0,060	0,040
-558,285	113,881	-0,126	-0,127
-557,271	-200,000	-0,011	-0,373
-556,256	113,888	0,372	-0,375
-555,242	12,283	-0,346	-0,221
-554,227	-64,767	0,292	0,098
-553,212	700,000	-0,082	-0,271
-552,198	419,272	-0,037	0,066
-551,183	-200,000	-0,019	0,198
-550,169	-200,000	0,011	-0,125
-549,154	-115,468	0,352	-0,054
-548,139	477,293	-0,160	-0,301
-547,125	-33,919	0,454	-0,207
-546,110	-89,645	0,511	-0,123
-545,096	-200,000	0,032	0,301
-544,081	-110,708	0,357	0,061
-543,066	700,000	-0,027	0,095
-542,052	258,025	-0,193	-0,276
-541,037	235,151	0,280	-0,384
-540,023	9,419	-0,251	0,157
-539,008	-200,000	-0,033	-0,333
-537,993	-145,486	0,174	0,013
-536,979	-56,662	0,506	0,185
-535,964	189,806	0,461	-0,575
-534,950	700,000	-0,187	0,412
-533,935	-79,392	0,793	0,221
-532,920	91,820	0,543	-0,507
-531,906	-18,399	0,529	0,273
-530,891	-14,117	0,254	0,135
-529,877	-51,278	-0,524	0,203
-528,862	471,830	-0,297	0,557
-527,848	223,100	-0,092	-0,123
-526,833	-27,324	0,362	0,174
-525,818	-200,000	-0,044	-0,294
-524,804	-200,000	-0,009	0,123
-523,789	-3,601	0,459	-0,264
-522,775	-32,267	-0,058	-0,027
-521,760	700,000	0,145	-0,353
-520,745	700,000	-0,084	-0,262
-519,731	35,689	-0,117	-0,085
-518,716	53,301	-0,110	0,087
-517,702	-103,849	-0,168	-0,032
-516,687	328,962	0,341	0,544
-515,672	258,305	0,188	0,268
-514,658	250,555	-0,363	0,513
-513,643	700,000	0,057	0,130
-512,629	143,419	-0,115	-0,127
-511,614	11,055	-0,300	0,190
-510,599	-200,000	-0,042	-0,280
-509,585	-34,211	0,297	-0,135
-508,570	134,467	-0,362	-0,389
-507,556	26,520	-0,411	0,285
-506,541	700,000	-0,119	-0,330
-505,526	-200,000	0,097	0,434
-504,512	-16,516	-0,297	-0,155
-503,497	700,000	-0,125	-0,285
-502,483	-14,132	0,296	-0,158
-501,468	145,734	0,169	-0,188
-500,453	166,566	0,246	0,289
-499,439	-200,000	-0,124	0,549
-498,424	-131,023	-0,403	0,044
-497,410	429,154	-0,131	-0,235
-496,395	7,706	0,413	-0,255
-495,380	-60,402	-0,581	0,204
-494,366	37,223	-0,340	-0,249
-493,351	-200,000	0,120	-0,555
-492,337	-200,000	0,001	0,136
-491,322	-171,447	-0,173	-0,005
-490,308	700,000	0,073	0,185
-489,293	-128,322	-0,205	-0,024
-488,278	671,492	0,107	0,230
-487,264	350,764	-0,089	-0,145
-486,249	47,968	0,310	-0,240
-485,235	700,000	-0,108	-0,368
-484,220	700,000	-0,141	-0,376
-483,205	279,641	0,308	0,456
-482,191	-200,000	-0,075	0,646
-481,176	700,000	-0,063	0,152
-480,162	238,253	0,117	-0,161
-479,147	-200,000	-0,040	0,172
-478,132	700,000	0,104	-0,295
-477,118	-111,483	-0,439	0,073
-476,103	-111,809	-0,067	0,011
-475,089	700,000	-0,166	-0,368
-474,074	-183,731	0,259	0,004
-473,059	-109,764	0,081	0,014
-472,045	-109,652	-0,237	-0,041
-471,030	-38,365	0,510	0,223
-470,016	700,000	0,153	0,445
-469,001	-161,943	0,304	0,012
-467,986	-200,000	-0,003	0,050
-466,972	-47,542	-0,323	-0,129
-465,957	-50,442	-0,425	0,165
-464,943	-22,269	0,348	0,174
-463,928	-200,000	-0,107	-0,451
-462,913	1,783	0,097	0,058
-461,899	-200,000	0,086	0,561
-460,884	-200,000	0,024	-0,175
-459,870	-200,000	0,048	0,449
-458,855	-200,000	0,012	0,263
-457,840	-4,288	-0,666	-0,380
-456,826	-68,225	-0,574	-0,184
-455,811	-38,009	-0,200	-0,088
-454,797	67,751	-0,195	0,165
-453,782	-200,000	-0,041	-0,245
-452,768	367,124	-0,347	-0,580
-451,753	700,000	0,107	-0,286
-450,738	-200,000	-0,038	-0,542
-449,724	70,187	0,166	0,141
-448,709	109,175	0,427	0,423
-447,695	155,691	0,298	-0,340
-446,680	700,000	0,061	0,162
-445,665	-200,000	0,015	0,806
-444,651	5,544	0,310	-0,189
-443,636	700,000	-0,025	0,080
-442,622	364,294	0,158	0,264
-441,607	-122,460	-0,565	0,075
-440,592	-165,809	0,202	0,007
-439,578	15,344	0,496	-0,321
-438,563	36,136	0,502	0,365
-437,549	-200,000	-0,111	0,669
-436,534	-22,718	0,506	0,252
-435,519	700,000	-0,330	0,762
-434,505	-200,000	-0,002	-0,396
-433,490	216,815	0,042	0,056
-432,476	-5,797	-0,253	-0,143
-431,461	700,000	-0,055	-0,137
-430,446	255,548	-0,071	-0,100
-429,432	-66,997	0,511	-0,166
-428,417	83,543	0,316	-0,285
-427,403	-35,386	0,200	0,089
-426,388	5,648	0,132	-0,080
-425,373	-59,125	-0,357	-0,126
-424,359	87,137	-0,131	0,119
-423,344	90,240	0,263	-0,243
-422,330	-200,000	-0,042	-0,171
-421,315	197,650	0,283	-0,357
-420,300	-77,375	0,257	0,073
-419,286	51,089	0,385	-0,302
-418,271	-138,199	0,550	-0,050
-417,257	-200,000	-0,170	-0,777
-416,242	-200,000	-0,061	-0,263
-415,228	1,715	-0,201	-0,119
-414,213	59,086	-0,395	0,320
-413,198	-200,000	0,174	-0,692
-412,184	242,727	-0,128	-0,178
-411,169	700,000	-0,151	0,347
-410,155	208,959	0,214	-0,277
-409,140	-200,000	-0,032	0,184
-408,125	-200,000	0,089	-0,545
-407,111	-200,000	-0,007	-0,345
-406,096	-24,159	-0,433	0,213
-405,082	700,000	0,148	0,390
-404,067	-133,245	-0,240	-0,025
-403,052	-113,712	-0,301	-0,048
-402,038	21,566	0,287	0,192
-401,023	47,362	-0,204	-0,157
-400,009	-108,472	0,241	0,042
-398,994	116,123	0,362	0,366
-397,979	-15,251	-0,292	0,154
-396,965	63,547	-0,286	0,237
-395,950	-200,000	-0,136	0,533
-394,936	215,320	-0,225	-0,295
-393,921	-52,361	-0,299	-0,114
-392,906	-71,171	0,366	0,113
-391,892	71,441	-0,514	0,440
-390,877	262,693	0,301	-0,432
-389,863	-200,000	0,010	-0,285
-388,848	-200,000	0,065	0,506
-387,833	526,436	0,135	0,263
-386,819	-200,000	-0,012	-0,172
-385,804	-200,000	0,027	-0,222
-384,790	-106,135	-0,150	-0,028
-383,775	143,421	0,397	-0,436
-382,760	-200,000	0,054	-0,272
-381,746	700,000	-0,049	0,115
-380,731	-158,986	0,612	-0,028
-379,717	85,270	-0,321	-0,290
-378,702	-76,309	0,531	0,153
-377,687	-200,000	-0,005	0,565
-376,673	111,370	-0,213	-0,212
-375,658	700,000	0,085	0,187
-374,644	700,000	-0,139	-0,420
-373,629	-97,185	0,559	-0,119
-372,615	-131,231	0,615	-0,067
-371,600	404,699	-0,222	-0,387
-370,585	-34,147	0,335	-0,151
-369,571	-119,926	0,447	-0,063
-368,556	380,045	-0,126	0,213
-367,542	-200,000	0,009	0,178
-366,527	123,930	-0,087	0,090
-365,512	700,000	-0,319	0,707
-364,498	-137,398	-0,212	0,020
-363,483	-36,436	-0,153	-0,068
-362,469	700,000	0,085	-0,224
-361,454	133,887	0,266	0,284
-360,439	700,000	0,109	0,365
-359,425	700,000	0,255	-0,660
-358,410	-11,563	-0,184	0,099
-357,396	347,214	0,132	0,214
-356,381	-45,534	0,334	0,136
-355,366	101,777	-0,435	-0,418
-354,352	29,968	-0,305	-0,214
-353,337	-102,633	-0,249	0,049
-352,323	-200,000	-0,088	-0,627
-351,308	-200,000	0,223	0,000
-350,293	410,684	-0,051	-0,090
-349,279	-200,000	-0,165	0,621
-348,264	-200,000	0,082	-0,312
-347,250	-191,339	-0,384	-0,003
-346,235	159,743	0,143	-0,164
-345,220	135,295	0,096	-0,102
-344,206	184,063	0,144	0,175
-343,191	700,000	-0,183	-0,489
-342,177	17,378	0,615	0,401
-341,162	-200,000	0,141	-0,588
-340,147	241,897	-0,081	-0,111
-339,133	-13,556	0,243	0,129
-338,118	-48,402	-0,443	-0,175
-337,104	-200,000	0,030	-0,460
-336,089	-176,713	-0,383	-0,008
-335,075	52,171	-0,132	-0,103
-334,060	59,835	0,054	-0,044
-333,045	132,881	-0,090	-0,096
-332,031	-200,000	0,010	-0,261
-331,016	-97,549	-0,260	0,055
-330,002	-200,000	-0,032	0,296
-328,987	-151,756	0,278	0,017
-327,972	356,921	-0,313	0,514
-326,958	700,000	0,092	-0,302
-325,943	-45,371	0,313	-0,127
-324,929	-200,000	0,077	0,418
-323,914	-128,131	0,406	0,047
-322,899	-35,214	-0,216	0,097
-321,885	-200,000	0,070	-0,470
-320,870	700,000	-0,118	0,267
-319,856	700,000	0,160	-0,405
-318,841	700,000	-0,152	0,515
-317,826	-68,420	0,185	0,059
-316,812	386,925	-0,223	0,381
-315,797	-141,569	0,520	-0,043
-314,783	63,011	-0,366	-0,301
-313,768	-65,595	-0,511	-0,168
-312,753	129,490	-0,495	0,520
-311,739	-111,112	-0,576	-0,096
-310,724	34,627	0,346	0,248
-309,710	-18,858	-0,308	-0,157
-308,695	132,020	-0,258	0,273
-307,680	20,161	0,255	-0,169
-306,666	-200,000	0,108	0,524
-305,651	9,830	0,113	-0,070
-304,637	18,158	-0,246	-0,161
-303,622	-97,259	0,238	0,051
-302,607	86,514	-0,111	0,100
-301,593	-49,154	-0,183	0,072
-300,578	-200,000	0,078	0,376
-299,564	-200,000	-0,034	0,366
-298,549	700,000	0,029	0,104
-297,535	-96,243	0,862	-0,186
-296,520	-200,000	0,071	0,617
-295,505	270,617	-0,130	-0,189
-294,491	-58,457	0,328	0,117
-293,476	20,845	-0,603	0,401
-292,462	-118,691	0,471	-0,068
-291,447	43,516	0,114	-0,085
-290,432	-200,000	-0,115	-0,495
-289,418	-6,511	0,317	0,177
-288,403	700,000	0,071	-0,193
-287,389	-200,000	-0,004	-0,264
-286,374	-200,000	-0,010	-0,132
-285,359	-72,374	-0,525	-0,159
-284,345	-76,870	0,465	0,133
-283,330	-107,239	-0,293	0,053
-282,316	700,000	0,168	0,430
-281,301	-200,000	-0,004	-0,324
-280,286	-200,000	-0,027	-0,470
-279,272	-20,477	0,347	-0,175
-278,257	265,778	-0,019	0,027
-277,243	700,000	0,128	0,318
-276,228	232,345	-0,183	-0,247
-275,213	-144,076	-0,441	0,033
-274,199	-200,000	0,058	0,315
-273,184	700,000	-0,291	0,675
-272,170	-117,674	0,094	0,014
-271,155	243,550	-0,156	0,215
-270,140	200,712	-0,307	0,388
-269,126	266,096	-0,132	-0,190
-268,111	-81,020	-0,304	0,082
-267,097	190,879	0,146	0,180
-266,082	137,176	-0,232	-0,249
-265,067	-70,737	0,156	0,048
-264,053	263,891	-0,133	-0,190
-263,038	23,769	-0,062	-0,042
-262,024	700,000	0,098	-0,315
-261,009	133,014	-0,354	0,376
-259,994	-7,765	-0,114	-0,063
-258,980	700,000	0,075	0,197
-257,965	74,550	0,126	-0,109
-256,951	-94,250	-0,444	-0,099
-255,936	72,537	0,400	0,342
-254,922	-73,567	0,082	0,024
-253,907	563,727	0,146	0,291
-252,892	147,085	0,038	-0,042
-251,878	63,461	0,144	-0,119
-250,863	-158,209	-0,299	0,014
-249,849	14,349	-0,402	-0,257
-248,834	-200,000	0,070	-0,361
-247,819	-2,915	-0,232	-0,132
-246,805	-99,326	-0,405	-0,083
-245,790	-6,389	0,182	-0,102
-244,776	83,116	0,286	0,255
-243,761	-200,000	0,016	0,410
-242,746	-200,000	0,073	-0,371
-241,732	388,948	0,127	-0,217
-240,717	284,869	0,164	0,243
-239,703	-111,998	-0,367	-0,060
-238,688	403,301	0,046	-0,079
-237,673	-77,027	0,473	0,134
-236,659	-200,000	-0,065	0,580
-235,644	4,846	0,170	0,102
-234,630	700,000	0,151	-0,391
-233,615	213,336	-0,209	-0,271
-232,600	-200,000	-0,029	-0,193
-231,586	-74,881	-0,699	0,204
-230,571	-128,773	0,573	0,065
-229,557	34,430	0,193	-0,138
-228,542	181,315	-0,283	0,341
-227,527	92,375	0,116	-0,107
-226,513	700,000	0,036	0,126
-225,498	424,172	0,079	-0,139
-224,484	-86,691	0,434	0,108
-223,469	239,684	-0,199	0,271
-222,454	14,473	-0,166	-0,106
-221,440	700,000	-0,241	-0,743
-220,425	-200,000	0,078	0,354
-219,411	387,751	-0,096	-0,163
-218,396	145,459	-0,481	0,528
-217,382	326,667	0,230	0,362
-216,367	54,501	-0,282	-0,223
-215,352	7,296	0,372	0,227
-214,338	16,257	-0,036	0,023
-213,323	380,569	-0,156	-0,262
-212,309	9,963	-0,518	-0,322
-211,294	-200,000	0,054	0,571
-210,279	331,045	0,119	0,188
-209,265	-200,000	0,064	-0,325
-208,250	-106,386	-0,385	-0,070
-207,236	-112,544	0,485	0,078
-206,221	-200,000	0,061	0,440
-205,206	332,322	-0,055	0,087
-204,192	64,614	0,195	-0,161
-203,177	110,331	-0,205	0,201
-202,163	210,139	0,184	0,237
-201,148	199,761	-0,115	-0,145
-200,133	210,719	0,049	0,064
-199,119	700,000	0,106	0,250
-198,104	292,280	-0,154	-0,231
-197,090	-200,000	0,006	0,585
-196,075	90,238	0,499	0,457
-195,060	-48,030	-0,254	-0,100
-194,046	48,141	0,308	-0,236
-193,031	194,476	0,294	0,366
-192,017	157,120	-0,356	-0,403
-191,002	-19,927	-0,398	0,200
-189,987	-37,136	-0,396	-0,173
-188,973	700,000	-0,173	0,389
-187,958	700,000	0,081	-0,265
-186,944	161,284	0,172	-0,197
-185,929	-200,000	0,001	0,085
-184,914	-80,811	0,526	0,142
-183,900	700,000	-0,152	-0,543
-182,885	81,858	-0,390	-0,345
-181,871	113,005	0,166	-0,165
-180,856	-200,000	0,009	-0,242
-179,842	-0,085	-0,378	-0,219
-178,827	34,815	-0,535	-0,382
-177,812	700,000	-0,225	0,646
-176,798	-55,691	-0,584	0,213
-175,783	124,748	0,062	0,063
-174,769	-200,000	-0,022	-0,291
-173,754	214,195	-0,223	0,289
-172,739	89,536	-0,166	-0,152
-171,725	-200,000	0,029	0,104
-170,710	-200,000	-0,010	0,119
-169,696	103,837	0,262	0,251
-168,681	12,092	-0,325	-0,204
-167,666	700,000	0,037	0,084
-166,652	700,000	-0,081	-0,267
-165,637	-117,342	0,467	0,069
-164,623	681,631	0,051	0,108
-163,608	-200,000	0,018	-0,178
-162,593	18,154	0,249	0,162
-161,579	79,421	0,214	0,188
-160,564	48,845	0,211	0,162
-159,550	700,000	0,056	-0,148
-158,535	700,000	-0,017	0,040
-157,520	-60,934	0,453	-0,156
-156,506	-46,832	-0,341	-0,136
-155,491	-200,000	-0,014	0,374
-154,477	103,985	0,174	-0,168
-153,462	20,038	0,272	-0,179
-152,447	-200,000	-0,014	0,172
-151,433	-173,408	0,329	-0,008
-150,418	334,135	0,089	0,141
-149,404	300,703	-0,323	-0,488
-148,389	700,000	0,175	-0,509
-147,374	-200,000	-0,046	-0,249
-146,360	393,392	0,152	0,259
-145,345	328,590	0,096	-0,151
-144,331	37,207	0,359	0,260
-143,316	111,315	0,295	-0,291
-142,302	700,000	-0,288	-0,627
-141,287	-84,429	0,068	0,017
-140,272	-200,000	-0,138	-0,609
-139,258	140,631	0,345	-0,372
-138,243	350,876	-0,127	0,206
-137,229	-101,359	-0,608	0,120
-136,214	-200,000	-0,069	-0,331
-135,199	-200,000	0,039	0,228
-134,185	-200,000	-0,083	-0,619
-133,170	-6,045	0,475	-0,264
-132,156	-200,000	-0,082	-0,341
-131,141	700,000	0,031	0,096
-130,126	34,138	0,320	-0,228
-129,112	700,000	0,193	-0,420
-128,097	11,049	-0,147	0,092
-127,083	-200,000	-0,016	0,409
-126,068	-110,405	-0,559	0,094
-125,053	170,841	-0,121	-0,142
-124,039	-25,547	-0,692	0,332
-123,024	-58,559	-0,405	0,143
-122,010	52,388	-0,451	-0,351
-120,995	700,000	0,186	0,413
-119,980	-200,000	-0,063	0,610
-118,966	700,000	-0,219	0,562
-117,951	104,635	0,091	-0,088
-116,937	418,079	0,236	-0,414
-115,922	-114,872	-0,208	0,032
-114,907	-82,267	0,498	0,132
-113,893	125,206	0,257	0,264
-112,878	266,489	0,123	-0,176
-111,864	252,843	-0,099	0,138
-110,849	-200,000	0,087	0,423
-109,834	-37,329	-0,192	-0,083
-108,820	-200,000	-0,059	0,243
-107,805	700,000	-0,069	0,232
-106,791	-200,000	0,004	-0,162
-105,776	700,000	-0,113	-0,286
-104,761	134,205	0,135	0,143
-103,747	108,927	0,126	0,123
-102,732	-56,083	-0,513	0,186
-101,718	-104,686	-0,253	-0,047
-100,703	375,426	0,137	-0,229
-99,689	-136,320	0,402	-0,038
-98,674	-200,000	0,009	0,127
-97,659	700,000	-0,030	-0,084
-96,645	700,000	-0,188	-0,643
-95,630	700,000	-0,084	0,273
-94,616	148,711	0,209	0,230
-93,601	700,000	-0,131	0,320
-92,586	201,554	0,375	0,472
-91,572	261,336	0,349	-0,494
-90,557	-141,932	-0,100	0,008
-89,543	700,000	0,133	-0,476
-88,528	-60,613	-0,268	0,092
-87,513	700,000	-0,081	-0,204
-86,499	533,709	0,095	-0,183
-85,484	563,600	-0,054	-0,108
-84,470	158,754	-0,276	-0,312
-83,455	24,115	0,158	0,106
-82,440	31,004	-0,310	0,216
-81,426	431,646	-0,146	0,259
-80,411	-50,161	-0,360	-0,138
-79,397	-79,021	0,257	0,071
-78,382	327,337	0,278	-0,436
-77,367	-81,911	0,323	0,086
-76,353	-29,332	0,145	0,067
-75,338	-141,032	0,236	0,019
-74,324	42,416	0,247	0,183
-73,309	700,000	0,140	0,461
-72,294	574,438	0,142	-0,284
-71,280	106,344	-0,104	0,101
-70,265	-112,349	0,246	0,040
-69,251	56,673	-0,297	-0,236
-68,236	-184,263	0,394	-0,005
-67,221	-42,541	0,462	0,191
-66,207	-111,443	-0,431	0,071
-65,192	-200,000	-0,118	-0,660
-64,178	100,394	-0,122	-0,115
-63,163	12,503	-0,118	0,074
-62,149	700,000	-0,084	-0,204
-61,134	459,515	-0,456	0,830
-60,119	516,852	-2,140	-4,089
-59,105	-4,143	1,683	0,947
-58,090	403,495	0,350	-0,601
-57,076	700,000	2,797	6,319
-56,061	86,170	59,754	53,563
-55,046	431,071	1147,354	2029,767
-54,032	302,790	2184,338	3300,166
-53,017	99,396	2002,363	1885,356
-52,003	30,825	1751,832	1219,430
-50,988	22,250	1550,691	1029,167
-49,973	17,323	1481,739	955,599
-48,959	15,866	1464,128	936,066
-47,944	15,656	1459,096	931,640
-46,930	15,526	1454,439	927,907
-45,915	15,521	1451,784	926,151
-44,900	15,507	1449,256	924,421
-43,886	15,420	1447,022	922,482
-42,871	15,423	1444,390	920,785
-41,857	15,124	1443,722	918,671
-40,842	15,343	1440,840	918,006
-39,827	15,373	1440,029	917,617
-38,813	15,444	1437,859	916,590
-37,798	15,264	1437,103	915,083
-36,784	15,452	1435,535	915,078
-35,769	15,417	1433,919	913,820
-34,754	15,414	1432,296	912,737
-33,740	15,343	1431,078	911,533
-32,725	15,374	1429,513	910,670
-31,711	15,443	1427,644	909,820
-30,696	15,379	1426,562	908,748
-29,681	15,356	1425,071	907,635
-28,667	15,400	1423,606	906,902
-27,652	15,333	1422,404	905,738
-26,638	15,425	1421,151	905,402
-25,623	15,227	1420,774	904,055
-24,609	15,438	1418,435	903,672
-23,594	15,216	1418,331	902,367
-22,579	15,393	1416,188	901,924
-21,565	15,270	1415,989	901,099
-20,550	15,458	1414,718	901,268
-19,536	15,361	1414,081	900,304
-18,521	15,329	1412,622	899,168
-17,506	15,429	1410,057	898,035
-16,492	15,365	1409,690	897,422
-15,477	15,344	1409,033	896,858
-14,463	15,358	1407,810	896,120
-13,448	15,317	1407,074	895,392
-12,433	15,241	1406,336	894,479
-11,419	15,257	1405,449	893,967
-10,404	15,261	1404,259	893,197
-9,390	15,144	1403,847	892,270
-8,375	15,229	1401,676	891,308
-7,360	15,408	1400,642	891,576
-6,346	15,357	1399,944	890,821
-5,331	15,239	1398,300	889,112
-4,317	15,146	1397,314	887,953
-3,302	15,160	1396,551	887,508
-2,287	15,362	1395,173	887,671
-1,273	15,373	1395,098	887,645
-0,258	14,490	1397,815	884,632
0,756	11,816	1359,512	847,785
1,771	6,291	1294,519	779,750
2,786	3,330	1265,912	748,035
3,800	2,542	1258,508	739,789
4,815	1,726	1253,656	732,944
5,829	1,007	1249,573	727,042
6,844	0,422	1247,419	722,928
7,859	0,552	1244,876	722,033
8,873	0,451	1242,746	720,272
9,888	0,507	1241,081	719,532
10,902	0,468	1239,534	718,403
11,917	0,394	1236,560	716,281
12,931	0,513	1234,550	715,644
13,946	0,560	1232,673	714,735
14,961	0,554	1231,243	713,834
15,975	0,443	1229,729	712,383
16,990	0,479	1228,291	711,679
18,004	0,590	1225,921	710,786
19,019	0,805	1223,616	710,422
20,034	0,920	1222,143	710,066
21,048	0,766	1221,236	708,770
22,063	0,672	1218,660	706,792
23,077	0,647	1218,476	706,526
24,092	0,696	1216,715	705,690
25,107	0,834	1214,197	704,833
26,121	0,781	1211,896	703,206
27,136	0,872	1210,088	702,541
28,150	0,993	1206,935	701,227
29,165	0,996	1204,916	700,026
30,180	0,911	1201,921	697,853
31,194	0,809	1198,862	695,560
32,209	1,166	1195,686	695,321
33,223	1,267	1190,428	692,687
34,238	1,257	1186,611	690,376
35,253	1,265	1184,096	688,908
36,267	1,179	1183,274	687,993
37,282	1,537	1181,447	688,522
38,296	1,427	1180,584	687,476
39,311	1,430	1179,194	686,639
40,326	1,457	1177,688	685,840
41,340	1,396	1176,584	684,881
42,355	1,189	1176,379	683,780
43,369	1,448	1174,875	684,035
44,384	1,599	1173,053	683,617
45,399	1,380	1172,984	682,545
46,413	1,321	1171,784	681,541
47,428	1,387	1169,863	680,680
48,442	1,491	1168,642	680,396
49,457	1,482	1167,788	679,813
50,472	1,391	1166,819	678,799
51,486	1,485	1164,625	677,902
52,501	1,408	1164,074	677,198
53,515	1,336	1163,358	676,418
54,530	1,531	1162,273	676,617
55,544	1,396	1161,505	675,524
56,559	1,473	1159,870	674,876
57,574	1,353	1159,454	674,058
58,588	1,477	1158,214	673,848
59,603	1,348	1157,466	672,800
60,617	1,398	1155,961	672,106
61,632	1,574	1155,612	672,646
62,647	1,378	1153,641	670,587
63,661	1,516	1152,721	670,622
64,676	1,462	1152,289	670,088
65,690	1,333	1151,393	668,955
66,705	1,528	1149,432	668,638
67,720	1,279	1149,272	667,402
68,734	1,529	1148,015	667,736
69,749	1,547	1146,725	667,024
70,763	1,451	1145,461	665,827
71,778	1,195	1145,137	664,470
72,793	1,420	1143,268	664,336
73,807	1,904	1143,420	666,512
74,822	2,952	1143,976	671,399
75,836	4,591	1145,400	679,400
76,851	5,018	1143,511	680,108
77,866	4,943	1143,421	679,686
78,880	4,910	1142,455	678,926
79,895	4,909	1140,477	677,705
80,909	4,784	1139,856	676,748
81,924	4,692	1138,428	675,458
82,939	4,824	1137,411	675,389
83,953	4,461	1135,146	672,423
84,968	2,999	1131,744	664,020
85,982	2,165	1128,976	658,740
86,997	1,907	1128,262	657,165
88,012	1,748	1128,165	656,380
89,026	2,160	1127,211	657,568
90,041	2,015	1125,094	655,667
91,055	2,004	1123,555	654,682
92,070	1,900	1124,467	654,724
93,084	2,556	1122,940	656,624
94,099	2,173	1123,020	654,979
95,114	2,239	1120,380	653,685
96,128	2,046	1119,546	652,328
97,143	1,755	1118,260	650,293
98,157	1,812	1117,216	649,889
99,172	1,808	1115,559	648,868
100,187	1,531	1114,115	646,802
101,201	1,571	1114,162	646,961
102,216	1,601	1113,157	646,468
103,230	1,445	1111,974	645,074
104,245	1,605	1110,218	644,700
105,260	1,762	1108,900	644,562
106,274	1,537	1108,299	643,218
107,289	1,736	1107,002	643,269
108,303	1,484	1105,992	641,576
109,318	1,408	1105,304	640,815
110,333	1,650	1103,943	641,010
111,347	1,637	1102,899	640,311
112,362	1,439	1101,804	638,799
113,376	1,537	1100,530	638,436
114,391	1,404	1100,155	637,620
115,406	1,530	1098,677	637,254
116,420	1,578	1096,980	636,434
117,435	1,325	1097,327	635,529
118,449	1,454	1095,165	634,780
119,464	1,307	1094,082	633,499
120,479	1,266	1092,848	632,572
121,493	0,933	1092,860	631,148
122,508	1,202	1091,132	631,234
123,522	1,082	1089,627	629,826
124,537	1,143	1088,812	629,571
125,552	0,857	1087,763	627,735
126,566	0,958	1086,159	627,189
127,581	0,923	1084,884	626,270
128,595	0,941	1083,645	625,593
129,610	0,917	1083,168	625,180
130,624	0,809	1081,493	623,726
131,639	0,686	1081,531	623,200
132,654	0,869	1079,529	622,764
133,668	1,002	1079,192	623,081
134,683	0,941	1078,991	622,677
135,697	1,011	1077,953	622,327
136,712	1,158	1076,567	622,095
137,727	0,999	1076,103	621,136
138,741	0,953	1075,421	620,514
139,756	0,815	1074,993	619,663
140,770	0,784	1073,885	618,856
141,785	1,160	1072,937	619,818
142,800	0,962	1072,754	618,862
143,814	1,043	1071,373	618,359
144,829	0,999	1070,647	617,720
145,843	1,146	1069,920	617,867
146,858	1,134	1069,169	617,345
147,873	1,210	1068,372	617,159
148,887	1,215	1068,098	616,983
149,902	1,127	1066,982	615,943
150,916	1,324	1065,148	615,649
151,931	1,335	1064,196	615,108
152,946	1,108	1063,757	613,893
153,960	1,022	1063,053	613,096
154,975	1,034	1061,784	612,376
155,989	0,948	1061,085	611,586
157,004	0,789	1060,504	610,572
158,019	0,915	1058,282	609,764
159,033	0,898	1057,582	609,252
160,048	0,910	1055,940	608,321
161,062	0,657	1055,162	606,813
162,077	0,680	1054,338	606,396
163,092	0,803	1053,529	606,387
164,106	0,719	1052,424	605,379
165,121	0,865	1051,917	605,638
166,135	0,943	1050,251	604,954
167,150	0,862	1049,942	604,413
168,165	1,029	1048,759	604,366
169,179	1,102	1047,841	604,094
170,194	1,307	1047,975	604,955
171,208	1,323	1046,772	604,285
172,223	1,444	1046,259	604,436
173,237	1,508	1045,068	603,968
174,252	1,451	1044,177	603,190
175,267	1,458	1043,514	602,798
176,281	1,703	1042,715	603,273
177,296	1,659	1042,092	602,701
178,310	1,607	1040,722	601,666
179,325	1,502	1041,200	601,489
180,340	1,595	1040,152	601,216
181,354	1,533	1039,594	600,609
182,369	1,480	1038,615	599,798
183,383	1,629	1037,402	599,652
184,398	1,782	1036,850	599,900
185,413	1,694	1036,869	599,529
186,427	1,830	1035,378	599,166
187,442	1,801	1034,783	598,671
188,456	1,649	1034,177	597,683
189,471	1,841	1033,483	598,004
190,486	1,815	1032,463	597,277
191,500	1,803	1031,643	596,715
192,515	1,852	1030,490	596,207
193,529	1,825	1029,709	595,613
194,544	1,761	1029,245	595,057
195,559	1,956	1028,827	595,544
196,573	2,038	1027,983	595,339
197,588	2,291	1028,356	596,514
198,602	2,450	1026,906	596,257
199,617	2,018	1025,969	593,988
200,632	2,208	1025,570	594,463
201,646	2,209	1025,551	594,418
202,661	1,987	1024,283	592,782
203,675	2,009	1023,868	592,592
204,690	2,143	1023,604	592,923
205,705	3,296	1025,670	598,589
206,719	4,822	1025,571	604,455
207,734	4,269	1023,432	601,005
208,748	3,148	1021,009	595,188
209,763	3,427	1022,110	596,878
210,777	3,876	1021,566	598,271
211,792	4,064	1017,398	596,519
212,807	4,164	1012,720	594,127
213,821	4,213	1010,624	593,051
214,836	3,517	1007,834	588,707
215,850	2,771	1004,728	584,004
216,865	2,372	1004,047	582,047
217,880	3,081	1004,830	585,179
218,894	4,656	1006,015	591,860
219,909	5,680	1004,274	594,709
220,923	5,611	1003,469	593,931
221,938	5,534	1003,286	593,496
222,953	5,638	1002,957	593,658
223,967	5,626	1001,135	592,501
224,982	5,700	1000,452	592,340
225,996	5,566	999,022	590,949
227,011	5,508	998,797	590,561
228,026	4,877	996,145	586,568
229,040	2,933	992,897	577,280
230,055	2,022	990,656	572,509
231,069	1,935	990,708	572,176
232,084	1,996	989,627	571,746
233,099	2,106	987,864	571,107
234,113	1,746	988,002	569,796
235,128	2,219	986,942	570,929
236,142	2,770	985,762	572,277
237,157	2,550	983,892	570,334
238,172	2,105	982,705	567,946
239,186	2,038	980,927	566,634
240,201	1,949	980,527	566,036
241,215	1,773	979,701	564,870
242,230	1,911	978,211	564,488
243,245	1,644	977,929	563,299
244,259	2,028	975,566	563,328
245,274	2,031	974,607	562,754
246,288	1,923	973,733	561,814
247,303	1,736	973,285	560,828
248,317	1,944	972,609	561,172
249,332	2,028	971,134	560,599
250,347	2,068	969,883	559,989
251,361	2,043	969,010	559,360
252,376	1,994	968,413	558,799
253,390	1,633	967,189	556,732
254,405	1,417	965,912	555,170
255,420	1,726	966,187	556,429
256,434	1,835	965,383	556,333
257,449	1,812	964,175	555,518
258,463	1,936	963,383	555,483
259,478	2,045	962,301	555,223
260,493	2,101	961,554	554,963
261,507	2,027	960,620	554,121
262,522	2,024	959,206	553,260
263,536	1,883	959,422	552,837
264,551	1,635	958,670	551,467
265,566	1,951	957,595	551,963
266,580	1,684	956,590	550,379
267,595	1,933	955,071	550,377
268,609	1,991	954,865	550,435
269,624	2,050	953,886	550,050
270,639	2,034	953,034	549,469
271,653	1,806	952,824	548,488
272,668	2,004	951,604	548,469
273,682	1,987	950,504	547,740
274,697	1,670	950,150	546,357
275,712	1,903	949,436	546,756
276,726	2,054	948,616	546,791
277,741	1,972	947,871	546,033
278,755	2,050	946,679	545,595
279,770	2,247	946,109	545,941
280,785	2,209	944,903	545,076
281,799	2,092	944,336	544,297
282,814	1,930	943,962	543,464
283,828	2,059	943,823	543,814
284,843	1,984	942,249	542,608
285,857	2,045	941,231	542,207
286,872	1,933	940,256	541,213
287,887	1,831	940,169	540,764
288,901	1,848	939,402	540,353
289,916	1,943	938,808	540,315
290,930	1,974	937,661	539,730
291,945	1,730	936,910	538,400
292,960	1,950	935,430	538,298
293,974	2,089	935,106	538,572
294,989	2,165	934,556	538,489
296,003	2,269	934,855	538,998
297,018	2,671	933,337	539,514
298,033	2,230	932,112	537,215
299,047	1,893	931,821	535,823
300,062	2,050	931,676	536,260
301,076	2,645	930,298	537,535
302,091	2,209	929,147	535,299
303,106	2,526	929,152	536,387
304,120	4,197	930,821	543,207
305,135	5,637	931,441	548,606
306,149	5,729	931,129	548,716
307,164	5,774	930,711	548,592
308,179	5,594	930,050	547,536
309,193	5,458	929,201	546,525
310,208	5,827	927,843	546,990
311,222	5,517	927,470	545,649
312,237	5,540	926,950	545,388
313,252	5,415	925,454	544,041
314,266	5,537	925,322	544,355
315,281	5,691	924,935	544,632
316,295	5,592	924,322	543,893
317,310	5,179	923,372	541,861
318,325	4,652	921,002	538,603
319,339	3,062	918,436	531,546
320,354	2,235	917,501	528,101
321,368	2,137	917,469	527,711
322,383	1,948	917,350	526,952
323,398	2,136	916,531	527,101
324,412	2,009	915,909	526,272
325,427	1,845	916,106	525,783
326,441	2,035	914,956	525,750
327,456	1,930	914,547	525,119
328,470	1,757	914,074	524,218
329,485	2,023	913,628	524,850
330,500	2,120	912,859	524,710
331,514	2,286	911,817	524,653
332,529	2,073	910,872	523,342
333,543	1,862	911,562	522,978
334,558	2,395	910,564	524,213
335,573	2,973	911,674	526,811
336,587	10,593	869,180	527,192
337,602	57,785	500,854	390,313
338,616	121,051	113,881	113,027
339,631	41,964	15,636	11,295
340,646	108,565	1,974	1,879
341,660	-88,001	-0,400	-0,095
342,675	52,382	-1,009	-0,766
343,689	39,819	-0,855	-0,611
344,704	-62,548	-1,116	-0,368
345,719	143,628	-0,893	-0,948
346,733	52,516	-1,106	-0,840
347,748	21,838	-0,876	-0,568
348,762	-53,199	-1,318	-0,480
349,777	94,716	-1,310	-1,186
350,792	181,440	-0,806	-0,945
351,806	-62,374	-1,602	-0,528
352,821	29,743	-1,133	-0,767
353,835	-38,414	-1,028	-0,432
354,850	-35,441	-0,980	-0,423
355,865	-89,325	-1,045	-0,243
356,879	-174,070	-0,774	0,018
357,894	78,004	-0,935	-0,794
358,908	-38,807	-1,090	-0,456
359,923	-89,338	-1,370	-0,319
360,938	31,368	-0,963	-0,658
361,952	39,492	-0,828	-0,590
362,967	68,957	-0,928	-0,759
363,981	42,088	-1,554	-1,122
364,996	264,840	-0,817	-1,135
366,010	96,335	-0,641	-0,584
367,025	-6,940	-1,468	-0,791
368,040	-14,826	-1,325	-0,675
369,054	-16,691	-1,026	-0,515
370,069	48,564	-1,145	-0,853
371,083	-29,880	-1,035	-0,468
372,098	29,530	-1,043	-0,705
373,113	-68,581	-1,054	-0,323
374,127	124,450	-0,784	-0,785
375,142	47,625	-0,706	-0,523
376,156	13,647	-1,270	-0,783
377,171	-23,025	-1,362	-0,650
378,186	70,526	-0,939	-0,772
379,200	-11,919	-0,744	-0,387
380,215	181,247	-0,967	-1,133
381,229	7,137	-0,845	-0,500
382,244	-102,204	-0,908	-0,172
383,259	32,196	-1,224	-0,838
384,273	-35,923	-1,438	-0,616
385,288	-25,632	-0,861	-0,402
386,302	-27,765	-1,306	-0,600
387,317	167,171	-0,571	-0,645
388,332	-0,137	-0,612	-0,345
389,346	79,148	-0,589	-0,501
390,361	128,524	-1,068	-1,082
391,375	-60,270	-1,039	-0,350
392,390	-21,729	-1,381	-0,666
393,405	-68,791	-1,390	-0,424
394,419	69,616	-0,843	-0,690
395,434	-95,570	-1,012	-0,214
396,448	-51,169	-0,748	-0,277
397,463	41,884	-1,217	-0,876
398,478	32,223	-1,391	-0,952
399,492	-52,570	-1,210	-0,442
400,507	-14,373	-1,236	-0,630
401,521	-32,925	-1,327	-0,583
402,536	14,348	-0,828	-0,512
403,550	-25,403	-0,560	-0,262
404,565	-115,785	-1,038	-0,153
405,580	-65,757	-1,009	-0,319
406,594	-119,730	-0,918	-0,125
407,609	16,121	-0,720	-0,450
408,623	101,895	-1,069	-0,991
409,638	131,632	-0,577	-0,589
410,653	4,446	-1,381	-0,802
411,667	144,477	-0,754	-0,800
412,682	38,478	-1,073	-0,758
413,696	29,979	-0,992	-0,670
414,711	-17,450	-0,930	-0,463
415,726	149,108	-0,750	-0,806
416,740	70,308	-0,912	-0,747
417,755	64,008	-0,992	-0,791
418,769	81,193	-0,746	-0,639
419,784	181,565	-0,643	-0,752
420,799	-80,647	-1,304	-0,342
421,813	94,373	-0,700	-0,630
422,828	700,000	-0,205	-0,458
423,842	420,705	-0,621	-1,059
424,857	-52,259	-0,891	-0,326
425,872	-64,526	-1,028	-0,329
426,886	93,867	-0,873	-0,784
427,901	6,004	-0,671	-0,393
428,915	127,163	-0,533	-0,537
429,930	145,931	-0,559	-0,595
430,945	23,857	-0,556	-0,363
431,959	-49,957	-1,127	-0,422
432,974	74,491	-0,838	-0,698
433,988	86,467	-1,153	-1,007
435,003	-200,000	-0,149	-0,548
436,018	-163,134	-0,761	-0,029
437,032	96,956	-1,059	-0,962
438,047	-61,491	-1,817	-0,602
439,061	-72,697	-0,824	-0,239
440,076	-42,013	-0,682	-0,276
441,091	-147,694	-0,547	0,036
442,105	-50,157	-0,946	-0,353
443,120	-6,683	-0,931	-0,501
444,134	-74,446	-0,929	-0,264
445,149	69,343	-0,935	-0,761
446,163	172,761	-0,812	-0,927
447,178	128,264	-0,667	-0,672
448,193	26,849	-0,555	-0,368
449,207	396,869	-0,286	-0,474
450,222	4,282	-0,234	-0,135
451,236	71,179	-0,713	-0,585
452,251	333,974	-0,464	-0,714
453,266	-103,569	-0,933	0,172
454,280	-69,218	-1,409	-0,426
455,295	-18,956	-1,035	-0,508
456,309	47,196	-0,882	-0,649
457,324	12,703	-0,903	-0,551
458,339	662,080	-0,363	-0,743
459,353	21,126	-0,897	-0,575
460,368	-3,462	-0,685	-0,376
461,382	263,192	-0,546	-0,752
462,397	20,009	-1,088	-0,693
463,412	-108,165	-1,043	-0,177
464,426	-63,032	-0,552	0,180
465,441	-66,564	-1,340	-0,418
466,455	-67,066	-0,940	-0,292
467,470	-128,800	-0,815	-0,090
468,485	287,813	-0,520	-0,745
469,499	-130,383	-0,664	-0,070
470,514	-88,767	-1,433	-0,334
471,528	-108,256	-0,852	-0,144
472,543	422,952	-0,471	-0,802
473,558	-145,658	-0,781	-0,054
474,572	65,604	-0,792	-0,634
475,587	110,805	-0,833	-0,792
476,601	167,685	-0,558	-0,628
477,616	-177,645	-0,874	-0,016
478,631	83,540	-0,613	-0,528
479,645	371,961	-0,494	-0,795
480,660	249,151	-0,566	-0,760
481,674	174,666	-0,394	-0,452
482,689	86,698	-0,628	-0,547
483,703	13,682	-0,721	-0,442
484,718	157,667	-0,644	-0,706
485,733	14,496	-0,738	-0,454
486,747	36,606	-0,407	0,283
487,762	346,008	-0,461	-0,717
488,776	27,835	-0,559	-0,372
489,791	53,956	-0,696	-0,528
490,806	11,452	-0,587	-0,355
491,820	67,251	-0,924	-0,744
492,835	-64,701	-0,679	-0,216
493,849	-50,654	-1,143	-0,423
494,864	-9,172	-0,473	-0,249
495,879	596,042	-0,201	-0,395
496,893	7,709	-0,515	-0,304
497,908	52,366	-0,752	-0,566
498,922	-106,664	-0,725	0,126
499,937	700,000	-0,148	-0,475
500,952	83,698	-0,607	-0,523
501,966	-185,475	-0,578	0,007
502,981	34,146	-0,652	-0,448
503,995	564,796	-0,359	-0,690
505,010	421,965	-0,319	-0,543
506,025	700,000	-0,513	-1,232
507,039	80,831	-0,523	-0,445
508,054	34,618	-0,516	-0,355
509,068	-11,319	-0,655	-0,339
510,083	-66,749	-0,501	-0,156
511,098	-127,174	-0,961	-0,110
512,112	-33,464	-0,961	-0,417
513,127	-51,405	-0,445	0,163
514,141	45,300	-0,460	-0,335
515,156	287,603	-0,578	-0,827
516,171	103,424	-0,854	-0,790
517,185	-35,044	-0,722	-0,309
518,200	-67,940	-0,586	-0,179
519,214	55,872	-0,482	-0,369
520,229	-56,951	-0,650	-0,225
521,243	60,309	-0,565	-0,440
522,258	700,000	-0,249	-0,656
523,273	-109,600	-1,080	-0,178
524,287	21,875	-0,565	-0,363
525,302	-38,556	-0,754	-0,313
526,316	46,684	-0,807	-0,590
527,331	85,356	-0,302	-0,261
528,346	185,716	-0,514	-0,603
529,360	-55,274	-0,812	-0,286
530,375	-101,350	-0,746	-0,142
531,389	380,469	-0,532	-0,862
532,404	700,000	-0,212	-0,566
533,419	196,364	-0,134	-0,161
534,433	-128,803	-1,076	-0,118
535,448	-162,548	-0,946	0,036
536,462	-89,233	-0,159	-0,037
537,477	-16,440	-1,022	-0,509
538,492	49,308	-0,862	-0,638
539,506	115,641	-0,731	-0,704
540,521	56,120	-0,665	-0,508
541,535	41,579	-0,956	-0,681
542,550	130,232	-0,717	-0,724
543,565	-112,067	-0,831	-0,130
544,579	20,616	-0,617	-0,392
545,594	590,049	-0,186	-0,362
546,608	-86,981	-0,216	0,052
547,623	-200,000	0,035	-0,122
548,638	48,830	-0,109	0,080
549,652	87,957	-0,528	-0,461
550,667	6,731	-0,628	-0,367
551,681	-68,102	-0,548	0,167
552,696	-126,933	-0,647	-0,074
553,711	-52,097	-1,047	-0,381
554,725	71,696	-0,238	-0,195
555,740	-200,000	-0,098	-0,363
556,754	-200,000	0,021	-0,211
557,769	147,924	-0,485	-0,515
558,783	-4,116	-0,679	-0,369
559,798	-30,434	-0,955	-0,425
560,813	-200,000	-0,061	-0,214
561,827	164,643	-0,646	-0,718
562,842	1,884	-0,709	-0,401
563,856	80,966	-0,742	-0,629
564,871	173,875	-0,806	-0,916
565,886	162,740	-0,585	-0,646
566,900	700,000	-0,181	-0,550
567,915	-43,830	-0,456	-0,180
568,929	-84,701	-0,367	-0,090
569,944	700,000	-0,232	-0,636
570,959	86,113	-0,262	-0,227
571,973	-44,903	-0,497	0,194
572,988	221,393	-0,631	-0,798
574,002	50,556	-0,413	-0,307
575,017	124,390	-0,547	-0,541
576,032	-200,000	-0,111	-0,490
577,046	92,483	-0,388	-0,344
578,061	700,000	-0,140	-0,322
579,075	-148,591	-0,828	0,052
580,090	-20,784	-0,619	-0,297
581,105	700,000	-0,175	-0,574
582,119	-61,885	-0,896	0,293
583,134	191,498	-0,485	-0,575
584,148	-145,008	-0,975	-0,069
585,163	225,035	-0,761	-0,969
586,178	40,895	-0,235	-0,167
587,192	-35,667	-0,399	-0,169
588,207	20,010	-0,548	0,346
589,221	700,000	-0,239	-0,625
590,236	20,422	-0,417	0,264
591,251	251,343	-0,486	-0,650
592,265	89,190	-0,841	-0,735
593,280	-79,376	-1,306	-0,345
594,294	700,000	-0,460	-1,075
595,309	47,143	-0,411	-0,300
596,324	-18,665	-0,942	-0,460
597,338	-185,655	-0,583	-0,007
598,353	-32,704	-0,569	-0,248
599,367	-102,623	-0,729	0,135
600,382	26,621	-0,691	-0,453
601,396	176,992	-0,512	-0,585
602,411	316,017	-0,545	-0,810
603,426	-67,003	-0,751	-0,231
604,440	-90,113	-0,781	-0,177
605,455	-4,381	-0,724	-0,392
606,469	-24,585	-0,495	-0,230
607,484	495,051	-0,357	-0,645
608,499	700,000	-0,145	-0,388
609,513	642,602	-0,450	-0,904
610,528	35,247	-0,677	-0,465
611,542	128,235	-0,493	-0,492
612,557	154,073	-0,564	-0,607
613,572	-144,571	-0,467	-0,033
614,586	-169,203	-0,698	0,020
615,601	-33,681	-0,630	-0,271
616,615	214,947	-0,278	-0,346
617,630	-49,367	-0,396	0,148
618,645	-84,830	-0,501	0,123
619,659	-144,100	-0,794	0,058
620,674	-14,200	-0,315	-0,159
621,688	26,791	-0,286	-0,187
622,703	-132,222	-0,547	-0,055
623,718	36,337	-1,040	-0,718
624,732	17,251	-0,817	-0,507
625,747	115,775	-0,653	-0,627
626,761	-20,125	-0,915	-0,441
627,776	47,688	-0,460	-0,336
628,791	-152,779	-0,302	0,017
629,805	700,000	-0,036	-0,091
630,820	-200,000	0,021	-0,266
631,834	-18,031	-0,333	-0,163
632,849	148,640	-0,549	-0,581
633,864	59,190	-0,613	-0,472
634,878	-9,982	-0,332	-0,173
635,893	5,766	-0,497	0,287
636,907	-59,537	-0,553	-0,185
637,922	16,419	-0,608	-0,375
638,936	-48,553	-0,632	-0,237
639,951	-122,079	-0,416	0,053
640,966	6,103	-0,309	-0,179
641,980	-200,000	-0,103	-0,385
642,995	62,156	0,026	-0,020
644,009	-104,129	-0,319	0,058
645,024	-79,296	-0,645	-0,170
646,039	-5,709	-0,626	-0,335
647,053	-200,000	-0,060	-0,746
648,068	-70,269	-0,384	-0,113
649,082	-70,948	-0,423	-0,124
650,097	16,308	-0,682	-0,420
651,112	700,000	-0,472	-1,070
652,126	-200,000	-0,087	-0,693
653,141	-200,000	0,179	-0,861
654,155	45,962	-0,377	-0,273
655,170	-200,000	-0,005	-0,109
656,185	-134,805	-0,207	-0,019
657,199	-11,495	-0,323	-0,166
658,214	76,108	-0,449	-0,372
659,228	-200,000	-0,074	-0,320
660,243	-6,469	-0,219	-0,116
661,258	78,332	-0,696	-0,581
662,272	-87,612	-1,027	-0,241
663,287	335,244	-0,646	-0,981
664,301	20,405	-0,620	-0,391
665,316	231,654	-0,332	-0,426
666,331	327,724	-0,325	-0,489
667,345	-71,831	-0,561	0,162
668,360	199,907	-0,470	0,565
669,374	106,544	-0,472	-0,437
670,389	700,000	0,091	-0,308
671,404	700,000	-0,501	-1,258
672,418	-166,718	-0,604	0,019
673,433	12,261	-0,349	-0,209
674,447	700,000	-0,108	-0,364
675,462	-94,366	-0,505	0,107
676,476	-81,847	-0,787	0,200
677,491	-7,881	-0,538	-0,283
678,506	-28,867	-0,532	-0,238
679,520	159,427	-0,768	-0,835
680,535	150,409	-0,486	-0,516
681,549	112,732	-0,323	-0,306
682,564	38,464	0,226	-0,157
683,579	5,444	-0,536	-0,308
684,593	-13,364	-0,654	-0,330
685,608	37,976	-0,145	0,100
686,622	-30,347	-0,670	-0,296
687,637	-132,063	-0,644	-0,065
688,652	700,000	-0,067	0,211
689,666	700,000	-0,275	-0,755
690,681	178,346	-0,486	-0,554
691,695	-2,581	-0,536	0,292
692,710	-58,540	-0,665	-0,224
693,725	116,361	-0,482	-0,461
694,739	-200,000	-0,158	-0,625
695,754	447,191	-0,238	-0,410
696,768	-200,000	0,015	-0,336
697,783	223,770	-0,555	-0,700
698,798	-200,000	-0,092	0,473
699,812	-200,000	0,125	-0,830
700,827	-8,202	-0,459	-0,241
701,841	193,043	-0,263	-0,311
702,856	386,965	-0,573	-0,926
703,871	-10,022	-0,325	0,168
704,885	-84,544	-0,602	-0,147
705,900	115,183	-0,452	-0,430
706,914	-130,669	-0,078	-0,008
707,929	-200,000	-0,083	-0,331
708,944	-8,878	-0,198	-0,103
709,958	-27,118	-0,585	-0,265
710,973	-25,004	-0,256	0,118
711,987	-200,000	0,002	-0,203
713,002	-26,212	-0,398	-0,181
714,017	209,729	-0,490	-0,600
715,031	-177,791	-0,180	-0,003
716,046	11,310	-0,396	-0,236
717,060	-105,524	-0,516	-0,090
718,075	-51,920	-0,804	0,290
719,089	-82,365	-0,601	-0,151
720,104	307,098	-0,284	-0,413
721,119	-200,000	-0,053	-0,323
722,133	227,988	-0,253	0,321
723,148	8,210	-0,551	-0,322
724,162	431,723	-0,244	-0,414
725,177	-2,455	-0,498	-0,271
726,192	-200,000	-0,065	-0,264
727,206	102,011	-0,392	0,356
728,221	1,403	0,243	0,136
729,235	700,000	0,073	-0,210
730,250	145,728	-0,294	-0,307
731,265	52,791	-0,236	0,176
732,279	236,156	-0,193	-0,249
733,294	-180,174	-0,397	0,006
734,308	-49,555	-0,292	0,108
735,323	-200,000	-0,102	-0,547
736,338	-6,594	-0,333	0,176
737,352	-108,063	-0,542	0,091
738,367	-16,784	-0,585	-0,287
739,381	-180,705	-0,423	0,007
740,396	-5,249	0,180	-0,096
741,411	220,219	-0,276	-0,345
742,425	115,431	-0,607	-0,578
743,440	-200,000	-0,072	-0,641
744,454	-200,000	-0,014	-0,410
745,469	700,000	-0,327	-0,702
746,484	101,185	-0,568	-0,514
747,498	-53,660	-0,504	-0,178
748,513	-100,666	-0,485	-0,092
749,527	-124,654	-0,136	-0,016
750,542	-49,595	-0,583	0,215
751,557	214,477	-0,401	-0,494
752,571	-200,000	-0,132	-0,486
753,586	-200,000	0,008	-0,458
754,600	-200,000	0,015	0,067
755,615	-120,569	-0,837	0,109
756,629	-55,267	-0,500	-0,174
757,644	-136,557	-0,598	-0,053
758,659	143,268	-0,643	-0,666
759,673	-57,351	-0,531	-0,181
760,688	700,000	-0,285	-0,679
761,702	-200,000	-0,002	-0,421
762,717	-112,732	-0,304	-0,047
763,732	-133,745	0,044	0,004
764,746	21,849	-0,272	0,172
765,761	-10,678	-0,455	-0,233
766,775	13,569	-0,665	-0,401
767,790	-129,547	-0,512	-0,054
768,805	-100,552	-0,434	0,083
769,819	62,696	-0,336	-0,261
770,834	-132,241	-0,353	-0,035
771,848	-6,832	-0,598	-0,315
772,863	123,078	-0,482	-0,469
773,878	294,529	-0,170	-0,242
774,892	-3,558	-0,845	-0,455
775,907	-25,966	-0,721	-0,328
776,921	-42,161	-0,307	0,122
777,936	-2,276	-0,356	-0,194
778,951	13,308	-0,147	0,088
779,965	-74,221	-0,583	0,163
780,980	95,491	-0,286	-0,253
781,994	-9,874	-0,169	-0,087
783,009	196,771	-0,550	-0,652
784,024	635,746	-0,367	-0,727
785,038	22,115	-0,264	-0,167
786,053	-51,645	-0,643	-0,232
787,067	12,735	-0,194	-0,116
788,082	-200,000	0,022	-0,237
789,097	700,000	-0,060	0,153
790,111	135,797	-0,576	0,582
791,126	37,664	-0,297	-0,204
792,140	65,803	-0,082	0,064
793,155	-184,607	-0,614	-0,008
794,169	-137,086	-0,334	0,029
795,184	-200,000	0,044	0,322
796,199	-200,000	0,105	-0,523
797,213	-200,000	-0,001	-0,328
798,228	-8,082	0,163	0,085
799,242	-42,543	-0,335	0,132
800,257	429,515	-0,288	-0,484
801,272	-70,503	0,061	-0,018
802,286	1,326	-0,483	-0,268
803,301	-50,774	-0,653	0,237
804,315	-129,020	-0,407	0,044
805,330	311,595	-0,237	-0,345
806,345	158,474	-0,203	-0,219
807,359	140,505	-0,177	0,181
808,374	381,564	-0,205	0,327
809,388	-70,827	-0,285	0,083
810,403	17,968	-0,299	-0,184
811,418	-67,588	-0,439	0,133
812,432	180,667	-0,142	0,162
813,447	433,810	-0,104	0,175
814,461	700,000	-0,136	-0,461
815,476	21,629	-0,468	-0,294
816,491	152,610	-0,301	-0,319
817,505	-51,209	-0,604	-0,218
818,520	195,725	-0,409	-0,483
819,534	71,796	-0,678	-0,546
820,549	-124,475	-0,457	-0,054
821,564	13,700	-0,680	0,408
822,578	-200,000	-0,022	-0,312
823,593	-19,884	-0,549	-0,262
824,607	-144,278	-0,547	-0,039
825,622	-200,000	-0,137	-0,869
826,637	248,669	-0,049	0,065
827,651	419,450	-0,117	-0,194
828,666	292,657	-0,128	-0,182
829,680	52,826	-0,511	-0,378
830,695	-98,723	-0,413	0,081
831,709	-90,487	-0,535	-0,119
832,724	232,471	-0,458	-0,583
833,739	382,395	-0,259	-0,413
834,753	80,055	-0,243	0,202
835,768	700,000	-0,083	0,258
836,782	-68,543	-0,210	-0,063
837,797	53,244	-0,337	-0,249
838,812	-69,541	-0,514	-0,152
839,826	542,282	-0,417	-0,772
840,841	187,181	-0,566	-0,653
841,855	700,000	-0,167	-0,524
842,870	700,000	0,081	0,173
843,885	-200,000	0,032	-0,546
844,899	-35,834	-0,318	0,132
845,914	-55,762	-0,403	0,139
846,928	-84,845	-0,369	0,089
847,943	700,000	-0,143	-0,382
848,958	-200,000	-0,151	-0,605
849,972	700,000	-0,137	-0,454
850,987	122,176	-0,463	0,447
852,001	-58,069	-0,376	0,126
853,016	426,168	-0,178	-0,297
854,031	-180,684	-0,196	-0,003
855,045	-108,147	-0,414	-0,069
856,060	350,549	-0,060	-0,092
857,074	22,540	-0,162	0,102
858,089	-21,809	-0,214	0,100
859,104	-200,000	-0,036	-0,256
860,118	227,733	-0,190	0,239
861,133	-107,455	-0,200	-0,034
862,147	-57,131	-0,605	-0,205
863,162	-18,298	-0,482	-0,232
864,177	3,858	-0,267	0,150
865,191	-33,977	-0,562	-0,238
866,206	700,000	-0,218	-0,626
867,220	79,671	-0,240	-0,199
868,235	-128,716	-0,411	0,044
869,250	596,467	-0,154	-0,295
870,264	-200,000	-0,004	-0,229
871,279	7,505	-0,420	-0,242
872,293	9,821	-0,240	-0,141
873,308	-62,646	-0,105	-0,033
874,322	199,321	-0,283	-0,335
875,337	-200,000	-0,037	-0,164
876,352	-200,000	-0,023	-0,084
877,366	-83,576	-0,183	-0,045
878,381	-200,000	-0,028	0,409
879,395	-200,000	0,038	-0,164
880,410	21,817	-0,311	0,195
881,425	75,044	-0,243	-0,198
882,439	700,000	0,065	-0,132
883,454	-6,082	-0,295	0,155
884,468	-13,435	-0,422	0,211
885,483	-24,185	-0,374	0,172
886,498	-200,000	0,016	-0,146
887,512	-37,293	-0,263	-0,108
888,527	29,972	-0,466	-0,306
889,541	435,391	-0,131	0,220
890,556	60,276	-0,372	0,284
891,571	-58,747	-0,221	-0,074
892,585	700,000	0,175	-0,517
893,600	700,000	0,118	-0,269
894,614	700,000	-0,081	-0,272
895,629	-66,791	-0,599	0,182
896,644	-135,593	-0,327	0,030
897,658	700,000	-0,245	-0,658
898,673	700,000	-0,159	0,328
899,687	-200,000	0,059	0,574
900,702	-200,000	-0,052	-0,345
901,717	700,000	0,070	0,157
902,731	-200,000	-0,055	-0,723
903,746	-69,209	-0,594	0,175
904,760	-200,000	-0,108	0,400
905,775	12,078	-0,517	-0,306
906,790	119,699	-0,190	-0,182
907,804	623,338	-0,303	-0,590
908,819	-200,000	-0,024	-0,363
909,833	226,706	-0,291	-0,364
910,848	-61,920	-0,554	0,178
911,862	-98,061	-0,424	-0,083
912,877	-82,093	-0,398	0,099
913,892	-172,434	-0,125	-0,003
914,906	333,986	-0,414	-0,618
915,921	700,000	-0,116	-0,293
916,935	191,408	-0,270	-0,313
917,950	117,442	-0,200	-0,190
918,965	-200,000	0,004	-0,519
919,979	700,000	-0,131	-0,289
920,994	118,037	-0,300	-0,285
922,008	-200,000	-0,209	-0,747
923,023	540,117	-0,246	0,452
924,038	220,574	-0,192	0,238
925,052	77,427	-0,251	-0,205
926,067	700,000	-0,223	-0,462
927,081	-200,000	-0,045	0,296
928,096	-200,000	-0,062	0,358
929,111	700,000	0,170	-0,552
930,125	700,000	-0,118	-0,273
931,140	249,317	-0,422	0,552
932,154	509,107	0,072	-0,130
933,169	437,259	0,055	0,092
934,184	649,860	-0,169	0,334
935,198	-99,926	-0,571	0,109
936,213	-108,787	-0,363	-0,059
937,227	-200,000	-0,019	0,338
938,242	57,779	0,061	0,046
939,257	81,895	0,130	-0,108
940,271	700,000	0,107	-0,310
941,286	480,249	-0,072	-0,126
942,300	700,000	-0,168	-0,516
943,315	-200,000	-0,126	-0,439
944,330	-113,503	0,361	0,054
945,344	-103,545	0,310	-0,055
946,359	-200,000	0,037	-0,417
947,373	17,136	-0,433	0,263
948,388	-200,000	0,063	-0,237
949,402	-22,746	-0,466	0,216
950,417	136,194	-0,369	0,370
951,432	92,739	-0,427	0,370
952,446	700,000	-0,071	0,227
953,461	700,000	0,094	-0,225
954,475	24,834	-0,106	-0,068
955,490	-200,000	-0,047	-0,184
956,505	-105,409	-0,217	0,038
957,519	59,746	-0,226	-0,172
958,534	-23,949	-0,241	-0,110
959,548	-200,000	-0,041	-0,182
960,563	29,644	-0,522	0,341
961,578	253,078	-0,425	0,558
962,592	-65,130	-0,594	-0,183
963,607	-200,000	-0,057	0,297
964,621	-110,244	0,082	0,013
965,636	602,618	-0,155	-0,296
966,651	-200,000	-0,021	0,188
967,665	-200,000	-0,034	-0,448
968,680	10,455	-0,359	0,210
969,694	-200,000	-0,008	-0,218
970,709	-200,000	0,016	-0,884
971,724	-124,370	-0,507	-0,060
972,738	-43,493	-0,384	0,148
973,753	-108,863	-0,553	0,090
974,767	-200,000	-0,096	0,333
975,782	216,718	0,265	0,324
976,797	-200,000	0,104	-0,599
977,811	-77,426	-0,190	-0,050
978,826	313,804	-0,180	0,260
979,840	-50,453	-0,355	0,128
980,855	22,151	-0,295	0,185
981,870	-173,358	-0,662	-0,015
982,884	-35,926	-0,383	-0,158
983,899	-200,000	-0,036	0,173
984,913	45,649	-0,101	0,071
985,928	-200,000	0,003	-0,494
986,942	332,442	0,192	-0,286
987,957	30,591	-0,198	-0,130
988,972	-71,696	-0,128	0,036
989,986	119,126	-0,343	-0,325
991,001	19,665	-0,231	-0,142
992,015	700,000	-0,112	-0,239
993,030	-104,951	0,119	-0,021
994,045	-200,000	-0,074	-0,343
995,059	700,000	-0,079	-0,248
996,074	700,000	-0,119	-0,369
997,088	138,689	-0,270	-0,272
998,103	164,609	-0,187	-0,202
999,118	101,762	-0,121	0,108
1000,132	617,493	-0,253	-0,489
1001,147	-200,000	-0,028	-0,140
1002,161	-82,426	-0,183	0,045
1003,176	182,610	-0,341	-0,386
1004,191	700,000	-0,250	0,531
1005,205	3,129	-0,245	-0,136
1006,220	700,000	-0,109	-0,240
1007,234	-111,867	-0,343	-0,053
1008,249	-70,946	0,168	-0,048
1009,264	700,000	-0,247	-0,528
1010,278	700,000	-0,059	0,169
1011,293	-24,250	-0,460	-0,210
1012,307	31,921	-0,283	-0,187
1013,322	-62,154	0,079	-0,025
1014,337	-200,000	-0,004	0,097
1015,351	-72,637	-0,191	0,054
1016,366	107,077	0,175	0,160
1017,380	-53,386	-0,204	0,071
1018,395	-200,000	0,031	-0,210
1019,410	-56,060	-0,093	0,032
1020,424	-200,000	-0,036	-0,202
1021,439	297,164	-0,227	0,320
1022,453	231,088	-0,269	-0,337
1023,468	700,000	-0,099	-0,229
1024,483	700,000	0,041	0,128
1025,497	159,411	-0,181	0,193
1026,512	108,723	-0,184	-0,168
1027,526	-82,159	-0,255	-0,063
1028,541	183,393	-0,111	0,125
1029,555	194,670	-0,164	0,190
1030,570	-8,206	-0,181	0,093
1031,585	-200,000	-0,303	-0,000
1032,599	-200,000	0,019	-0,331
1033,614	-200,000	-0,007	0,269
1034,628	-96,138	-0,183	0,037
1035,643	-139,220	-0,258	-0,021
1036,658	700,000	-0,189	0,397
1037,672	-12,833	-0,273	0,136
1038,687	-118,369	-0,333	0,045
1039,701	-4,464	-0,216	-0,114
1040,716	402,039	-0,004	0,006
1041,731	309,352	-0,132	-0,189
1042,745	15,477	-0,395	-0,236
1043,760	-58,535	-0,220	0,073
1044,774	70,168	-0,616	-0,486
1045,789	649,327	-0,077	0,152
1046,804	33,589	-0,460	-0,305
1047,818	700,000	-0,151	0,396
1048,833	-200,000	0,048	0,703
1049,847	103,674	0,370	0,332
1050,862	-200,000	0,051	-0,190
1051,877	-200,000	-0,059	-0,627
1052,891	-200,000	-0,022	-0,257
1053,906	700,000	0,050	0,160
1054,920	-14,604	-0,092	-0,045
1055,935	334,228	-0,370	0,548
1056,950	-101,500	-0,269	-0,050
1057,964	-200,000	0,056	-0,440
1058,979	210,350	-0,249	0,299
1059,993	-70,872	-0,437	-0,125
1061,008	-93,669	-0,347	0,073
1062,023	-200,000	-0,043	-0,230
1063,037	384,580	-0,102	-0,161
1064,052	-200,000	0,065	0,431
1065,066	36,392	-0,104	0,070
1066,081	-150,393	-0,437	-0,025
1067,095	122,084	-0,437	-0,416
1068,110	-200,000	0,015	0,105
1069,125	574,339	0,116	-0,217
1070,139	-8,621	-0,135	0,069
1071,154	-157,348	-0,177	-0,008
1072,168	-126,556	-0,283	-0,032
1073,183	-4,867	-0,514	-0,270
1074,198	-86,268	-0,454	0,106
1075,212	-200,000	0,015	-0,073
1076,227	119,781	-0,187	-0,177
1077,241	-87,476	-0,545	0,125
1078,256	5,768	-0,573	-0,322
1079,271	-10,552	-0,415	0,209
1080,285	700,000	-0,143	0,370
1081,300	294,568	0,092	0,128
1082,314	86,260	0,394	-0,331
1083,329	347,586	-0,406	-0,612
1084,344	-8,876	-0,142	-0,072
1085,358	114,060	-0,151	-0,140
1086,373	-110,691	-0,434	-0,068
1087,387	182,619	-0,181	0,204
1088,402	-200,000	0,040	0,430
1089,417	-113,230	-0,410	0,061
1090,431	-54,330	-0,322	-0,111
1091,446	-150,100	-0,363	-0,021
1092,460	23,796	-0,404	-0,253
1093,475	15,343	-0,427	-0,255
1094,490	408,440	-0,108	-0,174
1095,504	-190,379	-0,050	0,000
1096,519	352,269	0,154	-0,233
1097,533	47,674	-0,188	0,133
1098,548	-200,000	-0,055	-0,703
1099,563	596,823	0,211	-0,400
1100,577	700,000	0,009	0,020
1101,592	134,467	-0,128	0,126
1102,606	-120,204	-0,317	0,041
1103,621	-161,143	0,040	0,002
1104,635	664,992	0,119	-0,236
1105,650	-200,000	-0,098	-0,792
1106,665	224,441	-0,219	0,269
1107,679	400,551	0,169	-0,272
1108,694	700,000	-0,104	0,226
1109,708	71,180	-0,221	-0,174
1110,723	700,000	0,025	0,072
1111,738	-200,000	-0,050	-0,235
1112,752	-200,000	-0,007	-0,303
1113,767	526,194	0,065	0,116
1114,781	59,518	-0,301	0,225
1115,796	32,570	-0,239	0,157
1116,811	-1,817	-0,157	0,084
1117,825	143,437	-0,246	-0,249
1118,840	-124,363	-0,175	-0,021
1119,854	-160,940	-0,395	-0,016
1120,869	-42,312	-0,476	0,184
1121,884	-87,571	-0,212	0,048
1122,898	58,725	-0,254	-0,190
1123,913	-72,055	-0,355	0,100
1124,927	700,000	-0,070	0,195
1125,942	-200,000	0,033	-0,198
1126,957	-107,640	-0,214	-0,035
1127,971	461,208	0,170	0,289
1128,986	-200,000	0,068	-0,242
1130,000	700,000	-0,027	-0,066
1131,015	-19,474	-0,446	-0,209
1132,030	-200,000	-0,034	-0,135
1133,044	700,000	0,039	0,092
1134,059	-100,120	0,291	0,055
1135,073	-40,916	0,081	0,032
1136,088	-118,069	-0,443	-0,060
1137,103	-125,097	-0,479	0,055
1138,117	693,558	-0,082	-0,164
1139,132	534,296	-0,045	0,082
1140,146	-200,000	0,008	-0,344
1141,161	31,604	-0,347	-0,227
1142,176	-134,383	-0,347	0,032
1143,190	-200,000	-0,002	-0,215
1144,205	-18,944	-0,286	0,135
1145,219	-133,197	-0,329	0,031
1146,234	700,000	-0,066	0,178
1147,248	-94,806	-0,204	0,042
1148,263	27,664	-0,186	-0,119
1149,278	93,051	0,233	-0,200
1150,292	79,877	0,143	-0,116
1151,307	121,073	-0,251	-0,237
1152,321	700,000	-0,170	-0,482
1153,336	-200,000	-0,211	0,000
1154,351	-25,093	-0,308	0,138
1155,365	-200,000	0,024	0,305
1156,380	5,980	-0,221	0,124
1157,394	101,352	-0,354	0,313
1158,409	-36,634	-0,415	-0,169
1159,424	81,884	0,233	-0,192
1160,438	203,561	0,240	0,282
1161,453	700,000	-0,091	0,188
1162,467	189,956	0,111	0,126
1163,482	53,953	-0,382	0,278
1164,497	-27,613	-0,539	0,236
1165,511	-50,705	-0,166	-0,059
1166,526	700,000	0,061	-0,174
1167,540	-188,130	0,283	-0,003
1168,555	88,594	0,476	-0,402
1169,570	-153,953	0,099	0,005
1170,584	-200,000	0,056	0,253
1171,599	-200,000	0,051	0,519
1172,613	112,502	-0,429	-0,394
1173,628	-131,231	-0,470	-0,047
1174,643	-200,000	-0,013	0,321
1175,657	237,617	0,224	0,282
1176,672	139,283	-0,229	0,228
1177,686	-23,735	-0,547	-0,248
1178,701	222,009	-0,355	0,434
1179,716	-200,000	-0,079	0,277
1180,730	-82,772	-0,413	0,100
1181,745	-26,818	-0,203	-0,090
1182,759	372,899	-0,250	-0,387
1183,774	182,932	-0,159	-0,178
1184,788	640,903	0,078	-0,152
1185,803	700,000	0,141	-0,405
1186,818	-200,000	-0,075	-0,340
1187,832	167,218	-0,271	-0,292
1188,847	-42,689	-0,320	0,123
1189,861	-146,023	-0,436	0,029
1190,876	18,560	-0,377	-0,228
1191,891	196,367	-0,061	-0,071
1192,905	-200,000	0,094	-0,556
1193,920	-97,821	-0,289	0,056
1194,934	-22,279	-0,590	-0,270
1195,949	-7,195	-0,411	-0,210
1196,964	-9,682	-0,348	0,175
1197,978	0,056	-0,284	0,153
1198,993	76,119	-0,152	0,122
1200,007	237,941	0,093	0,116
1201,022	700,000	0,036	0,091
1202,037	-32,764	-0,294	0,123
1203,051	-200,000	-0,054	0,344
1204,066	57,953	0,286	0,212
1205,080	-200,000	0,066	0,540
1206,095	-103,210	-0,045	0,008
1207,110	-116,353	0,176	-0,024
1208,124	-200,000	-0,089	0,606
1209,139	194,580	-0,085	-0,098
1210,153	344,957	0,158	0,236
1211,168	100,005	0,090	0,079
1212,183	410,612	-0,081	-0,131
1213,197	-59,798	-0,309	-0,099
1214,212	-139,439	-0,124	0,010
1215,226	-59,402	-0,194	-0,063
1216,241	-200,000	0,040	0,340
1217,256	-200,000	0,050	0,255
1218,270	700,000	-0,172	0,397
1219,285	700,000	-0,116	0,379
1220,299	-20,184	-0,202	0,094
1221,314	-25,957	-0,270	-0,120
1222,328	247,674	-0,447	0,572
1223,343	14,200	-0,421	0,247
1224,358	-5,639	-0,240	0,124
1225,372	-102,808	0,256	0,046
1226,387	170,461	-0,170	0,184
1227,401	58,825	-0,353	0,262
1228,416	-96,583	-0,572	0,113
1229,431	-72,925	-0,570	0,157
1230,445	119,647	-0,232	0,218
1231,460	-133,437	-0,223	0,021
1232,474	403,973	-0,087	-0,139
1233,489	-118,926	0,382	-0,050
1234,504	365,168	-0,020	-0,030
1235,518	-78,437	-0,189	0,049
1236,533	-70,765	-0,289	0,082
1237,547	-200,000	-0,044	0,452
1238,562	700,000	-0,081	-0,200
1239,577	289,621	-0,283	0,388
1240,591	700,000	0,111	0,327
1241,606	-200,000	-0,077	-0,332
1242,620	240,092	-0,228	0,288
1243,635	-13,286	-0,220	0,108
1244,650	700,000	-0,138	-0,362
1245,664	700,000	-0,073	-0,210
1246,679	1,217	-0,464	-0,251
1247,693	-89,507	-0,435	0,096
1248,708	-73,385	-0,214	-0,059
1249,723	-200,000	-0,059	0,202
1250,737	-200,000	-0,040	0,426
1251,752	700,000	0,054	0,125
1252,766	504,540	-0,157	-0,276
1253,781	-188,154	-0,077	0,001
1254,796	700,000	0,054	-0,120
1255,810	700,000	-0,036	0,107
1256,825	281,987	-0,338	0,458
1257,839	117,318	-0,192	-0,178
1258,854	-118,106	-0,217	0,029
1259,868	303,677	-0,141	0,198
1260,883	91,968	-0,196	-0,166
1261,898	-79,572	-0,140	-0,035
1262,912	-200,000	-0,027	0,158
1263,927	443,609	-0,190	0,315
1264,941	-151,401	0,290	-0,016
1265,956	-52,115	0,383	0,133
1266,971	272,652	-0,289	0,386
1267,985	30,518	-0,153	-0,098
1269,000	-2,413	-0,265	-0,140
1270,014	-48,797	-0,191	-0,069
1271,029	700,000	-0,214	0,506
1272,044	219,042	-0,293	0,353
1273,058	-200,000	-0,008	0,300
1274,073	700,000	-0,079	-0,191
1275,087	594,780	-0,130	-0,243
1276,102	161,843	-0,183	0,194
1277,117	-200,000	0,185	0,654
1278,131	-77,940	0,374	-0,097
1279,146	-200,000	-0,025	0,301
1280,160	-109,033	-0,451	-0,072
1281,175	-147,498	-0,428	-0,027
1282,190	50,158	-0,156	-0,111
1283,204	374,552	-0,193	-0,297
1284,219	408,783	-0,331	-0,529
1285,233	-200,000	-0,019	0,136
1286,248	700,000	-0,097	0,279
1287,263	220,722	-0,278	-0,337
1288,277	-36,930	-0,148	-0,060
1289,292	282,596	0,188	-0,255
1290,306	450,254	-0,112	-0,186
1291,321	700,000	-0,194	-0,596
1292,336	-161,508	-0,224	0,009
1293,350	88,648	-0,164	-0,137
1294,365	-200,000	0,127	-0,461
1295,379	61,856	-0,297	-0,223
1296,394	-8,913	-0,282	0,142
1297,409	-119,286	-0,063	-0,008
1298,423	700,000	0,175	-0,543
1299,438	161,369	0,205	-0,216
1300,452	484,697	-0,193	0,332
1301,467	-7,094	-0,232	-0,118
1302,481	700,000	-0,193	-0,442
1303,496	700,000	0,178	-0,468
1304,511	6,448	0,189	0,105
1305,525	-200,000	-0,041	-0,207
1306,540	-200,000	0,044	-0,392
1307,554	-31,000	-0,256	0,108
1308,569	132,270	-0,227	0,220
1309,584	700,000	-0,239	0,538
1310,598	386,554	-0,331	0,515
1311,613	700,000	0,014	0,034
1312,627	-200,000	-0,119	0,481
1313,642	-200,000	-0,199	0,732
1314,657	-81,383	-0,570	-0,140
1315,671	82,161	-0,242	-0,197
1316,686	700,000	-0,061	-0,192
1317,700	-53,614	-0,347	0,119
1318,715	-176,484	-0,158	0,003
1319,730	-200,000	0,021	-0,080
1320,744	700,000	-0,098	0,248
1321,759	140,497	-0,038	0,038
1322,773	700,000	-0,147	0,371
1323,788	-125,642	-0,343	-0,039
1324,803	-94,322	-0,417	0,085
1325,817	33,637	-0,349	-0,228
1326,832	-1,615	-0,177	-0,094
1327,846	-138,969	-0,209	-0,017
1328,861	697,984	0,268	-0,532
1329,876	-200,000	0,056	-0,280
1330,890	97,034	-0,326	0,280
1331,905	-62,037	-0,190	-0,059
1332,919	235,365	-0,258	-0,320
1333,934	14,874	-0,644	0,378
1334,949	-149,454	-0,112	-0,007
1335,963	-123,357	0,279	-0,033
1336,978	-52,754	-0,146	0,050
1337,992	-66,357	0,179	-0,053
1339,007	-200,000	0,116	-0,464
1340,021	-200,000	-0,134	0,537
1341,036	-200,000	-0,007	-0,046
1342,051	700,000	0,058	0,131
1343,065	-200,000	0,038	-0,357
1344,080	700,000	0,145	-0,364
1345,094	308,883	0,122	-0,172
1346,109	295,355	0,059	-0,082
1347,124	-200,000	-0,003	0,147
1348,138	555,192	-0,279	-0,506
1349,153	700,000	-0,052	-0,121
1350,167	406,999	-0,036	0,057
