DTS Sentinel unit serial number:	SN409017Multiplexer serial number:	ORYXHardware model number:	OX4Software version number:	ORYX F/W v1,02 Oryx Data Collector v3.7.1.3data status	okinstallation	speulderbos2017nov21differential loss correction	single-endedforward channel	channel 1reverse channel	N/Adate	2018/01/07time	20:21:49forward acquisition time	30,00reverse acquisition time	0,00gamma	498,7988k internal	0,2787k external	0,2787temperature offset calibration	1,0000default loss term (dB/km)	0,3730temperature slope calibration	0,7000multiplexer offset coefficient	1,0000multiplexer slope coefficient	1,0000fibre end	0,00T internal ref (°C)	15,37T ext. ref 1 (°C)	3,09T ext. ref 2 (°C)	1258,77length (m)	temperature (°C)	Stokes	anti-Stokes-747,000	-92,323	-0,210	-0,049
-745,985	117,572	-0,673	-0,692
-744,971	-10,915	0,195	0,107
-743,956	288,877	-0,277	-0,421
-742,942	700,000	-0,195	0,558
-741,927	-82,117	-0,583	-0,158
-740,912	-200,000	-0,016	0,495
-739,898	700,000	-0,219	-0,668
-738,883	-200,000	-0,000	-0,107
-737,869	-155,882	-0,579	0,030
-736,854	440,069	0,118	0,217
-735,839	-91,427	-0,701	-0,166
-734,825	294,612	0,324	0,496
-733,810	106,666	0,080	0,079
-732,796	-200,000	-0,048	-0,417
-731,781	253,138	-0,266	-0,380
-730,766	364,238	-0,219	0,370
-729,752	389,644	-0,112	0,194
-728,737	-25,942	-0,287	0,141
-727,723	37,804	-0,144	-0,107
-726,708	-200,000	-0,070	-0,650
-725,694	-81,139	-0,424	-0,116
-724,679	-95,118	0,546	-0,122
-723,664	-115,679	-0,208	0,032
-722,650	-130,490	-0,479	-0,054
-721,635	700,000	-0,135	-0,487
-720,621	700,000	-0,222	-0,671
-719,606	-26,788	0,461	0,224
-718,591	-200,000	-0,055	0,509
-717,577	405,385	-0,176	-0,311
-716,562	-137,326	-0,649	0,061
-715,548	196,695	0,232	0,296
-714,533	-79,702	-0,478	-0,134
-713,518	344,127	-0,073	0,120
-712,504	-127,763	-0,654	0,078
-711,489	275,986	0,179	-0,265
-710,475	-33,266	0,425	-0,196
-709,460	-200,000	0,037	-0,440
-708,445	205,902	0,142	-0,185
-707,431	51,631	-0,244	0,193
-706,416	-112,533	0,522	-0,086
-705,402	262,404	0,363	-0,526
-704,387	700,000	-0,161	0,376
-703,372	-59,527	0,247	-0,088
-702,358	77,930	0,238	0,211
-701,343	-96,986	-0,668	0,145
-700,329	228,377	-0,157	-0,213
-699,314	-86,358	-0,488	0,124
-698,299	-200,000	-0,008	0,246
-697,285	-34,305	0,280	0,128
-696,270	-200,000	-0,009	-0,186
-695,256	58,960	-0,155	0,127
-694,241	-91,334	-0,172	0,041
-693,226	68,342	-0,275	0,235
-692,212	-144,216	-0,363	0,028
-691,197	-200,000	-0,044	-0,600
-690,183	-93,669	0,371	-0,085
-689,168	-200,000	-0,001	0,654
-688,154	376,537	0,170	-0,291
-687,139	238,118	0,232	-0,322
-686,124	42,024	-0,245	0,185
-685,110	221,900	-0,148	-0,199
-684,095	144,001	-0,051	0,056
-683,081	-70,372	0,739	0,232
-682,066	700,000	0,315	-0,791
-681,051	700,000	-0,119	-0,347
-680,037	-164,676	-0,643	-0,024
-679,022	-200,000	-0,093	-0,546
-678,008	-78,433	-0,554	0,157
-676,993	-144,157	-0,414	0,032
-675,978	108,254	-0,452	-0,449
-674,964	-56,527	0,086	0,032
-673,949	574,980	0,198	0,405
-672,935	-23,569	0,305	-0,152
-671,920	-200,000	0,064	-0,252
-670,905	533,334	-0,183	-0,362
-669,891	294,959	-0,260	-0,397
-668,876	438,540	-0,152	-0,277
-667,862	198,537	-0,236	0,301
-666,847	-200,000	0,038	0,582
-665,832	-66,359	-0,296	0,098
-664,818	37,532	0,315	-0,232
-663,803	-57,567	0,162	0,059
-662,789	144,018	0,129	-0,143
-661,774	349,884	-0,033	0,054
-660,759	-39,875	0,105	-0,045
-659,745	-24,251	0,392	0,194
-658,730	-200,000	0,023	-0,404
-657,716	293,346	0,167	-0,254
-656,701	49,999	-0,336	0,264
-655,686	-1,906	-0,717	-0,419
-654,672	194,988	0,397	0,503
-653,657	127,942	0,124	-0,131
-652,643	344,497	-0,151	-0,247
-651,628	-155,414	0,599	-0,032
-650,613	157,570	0,207	0,239
-649,599	32,336	0,227	-0,163
-648,584	280,375	0,135	0,201
-647,570	-24,409	-0,201	0,099
-646,555	-200,000	0,055	-0,542
-645,541	700,000	0,193	-0,487
-644,526	34,529	-0,279	0,203
-643,511	518,871	0,206	0,403
-642,497	387,263	-0,122	-0,210
-641,482	325,793	0,116	-0,185
-640,468	-19,691	0,099	-0,051
-639,453	-130,506	0,159	0,018
-638,438	-120,749	0,113	0,016
-637,424	663,008	0,019	-0,041
-636,409	-200,000	0,007	0,126
-635,395	28,876	-0,518	0,365
-634,380	700,000	0,071	0,168
-633,365	167,783	-0,072	0,086
-632,351	47,563	-0,407	-0,315
-631,336	-90,823	-0,346	0,082
-630,322	527,612	-0,222	0,436
-629,307	237,985	-0,252	-0,349
-628,292	-200,000	-0,011	-0,128
-627,278	69,285	-0,257	0,220
-626,263	-200,000	0,014	-0,644
-625,249	72,063	0,249	-0,215
-624,234	62,926	-0,225	-0,187
-623,219	408,215	-0,201	0,354
-622,205	-200,000	0,143	-0,538
-621,190	117,895	0,174	-0,179
-620,176	-14,365	0,389	0,208
-619,161	-200,000	0,071	-0,525
-618,146	700,000	-0,179	-0,576
-617,132	-8,822	0,450	-0,250
-616,117	80,779	-0,163	0,146
-615,103	54,351	-0,400	0,320
-614,088	270,536	-0,136	0,199
-613,073	-39,822	-0,161	-0,070
-612,059	-200,000	-0,066	0,329
-611,044	-59,681	-0,490	-0,174
-610,030	68,632	0,348	0,297
-609,015	557,942	0,390	0,785
-608,001	700,000	-0,157	0,371
-606,986	242,686	0,185	-0,258
-605,971	700,000	0,276	0,663
-604,957	-23,640	0,297	0,147
-603,942	-200,000	0,060	0,253
-602,928	-153,352	0,604	-0,034
-601,913	61,746	0,146	-0,121
-600,898	539,976	-0,182	0,362
-599,884	-200,000	0,071	0,731
-598,869	-131,380	-0,201	-0,022
-597,855	-169,810	-0,399	-0,012
-596,840	-103,414	0,363	0,071
-595,825	-42,757	-0,257	0,108
-594,811	152,268	-0,333	-0,378
-593,796	78,003	-0,141	0,125
-592,782	700,000	0,334	-0,977
-591,767	-200,000	-0,100	0,377
-590,752	-165,651	-0,416	0,015
-589,738	63,000	-0,293	0,243
-588,723	82,195	0,065	0,059
-587,709	250,021	0,301	-0,426
-586,694	-200,000	0,079	-0,511
-585,679	61,019	-0,400	0,329
-584,665	13,018	0,323	0,207
-583,650	-67,352	0,087	0,028
-582,636	651,621	-0,077	-0,165
-581,621	74,334	-0,143	-0,125
-580,606	-200,000	0,085	0,461
-579,592	426,012	0,260	-0,467
-578,577	1,894	0,109	0,065
-577,563	-200,000	-0,020	0,225
-576,548	-86,692	0,336	-0,085
-575,533	23,082	-0,429	0,292
-574,519	700,000	0,225	0,495
-573,504	288,204	0,272	0,410
-572,490	-82,642	-0,208	0,056
-571,475	377,530	0,238	-0,404
-570,461	-162,146	-0,503	-0,021
-569,446	-200,000	-0,065	-0,240
-568,431	-200,000	0,007	0,158
-567,417	-25,426	0,537	-0,263
-566,402	-135,369	0,159	0,016
-565,388	-120,570	-0,713	0,099
-564,373	-200,000	-0,013	0,259
-563,358	158,279	0,556	-0,641
-562,344	700,000	0,046	0,138
-561,329	129,363	-0,099	0,105
-560,315	-67,280	-0,402	0,131
-559,300	-109,659	-0,389	0,067
-558,285	230,950	0,259	0,352
-557,271	-10,287	-0,230	0,126
-556,256	-200,000	0,008	0,168
-555,242	-12,483	-0,137	0,074
-554,227	-45,370	0,231	-0,095
-553,212	296,628	0,224	-0,342
-552,198	-200,000	-0,064	-0,265
-551,183	-200,000	0,147	-0,592
-550,169	-200,000	-0,031	0,505
-549,154	212,686	-0,173	0,227
-548,139	-94,661	-0,402	-0,090
-547,125	-26,970	-0,582	-0,281
-546,110	80,299	0,407	0,363
-545,096	-50,355	0,539	-0,210
-544,081	-200,000	0,023	0,152
-543,066	13,967	-0,194	-0,125
-542,052	343,009	-0,225	0,367
-541,037	43,221	0,378	-0,286
-540,023	406,968	-0,054	-0,095
-539,008	-119,377	0,290	0,041
-537,993	54,998	0,236	0,189
-536,979	140,109	0,419	-0,458
-535,964	700,000	0,207	0,678
-534,950	-90,345	-0,105	-0,025
-533,935	-200,000	0,004	0,302
-532,920	431,442	-0,112	0,202
-531,906	657,645	-0,118	0,252
-530,891	-25,560	0,797	0,389
-529,877	84,029	-0,199	0,180
-528,862	11,553	-0,268	0,170
-527,848	650,844	0,140	0,298
-526,833	389,358	0,228	0,393
-525,818	141,761	0,268	-0,295
-524,804	-98,420	-0,300	-0,063
-523,789	64,927	0,148	-0,123
-522,775	-30,798	0,672	-0,314
-521,760	321,817	0,021	0,034
-520,745	68,035	-0,265	-0,224
-519,731	-199,995	-0,458	-0,002
-518,716	-144,153	0,141	0,011
-517,702	453,267	0,146	0,269
-516,687	-200,000	-0,002	0,134
-515,672	375,664	-0,146	-0,248
-514,658	456,840	0,101	0,186
-513,643	-3,775	-0,346	-0,199
-512,629	190,008	-0,223	0,278
-511,614	-200,000	0,036	0,587
-510,599	25,238	0,272	0,187
-509,585	102,716	0,215	0,208
-508,570	301,197	-0,093	0,143
-507,556	-87,094	-0,182	0,046
-506,541	-200,000	0,000	-0,257
-505,526	-200,000	0,002	0,650
-504,512	-98,000	-0,224	-0,047
-503,497	-200,000	-0,063	-0,240
-502,483	-148,667	-0,082	-0,005
-501,468	52,471	0,300	0,237
-500,453	255,601	0,355	-0,505
-499,439	700,000	-0,357	-0,808
-498,424	-38,086	0,201	-0,088
-497,410	54,154	-0,244	0,195
-496,395	700,000	0,122	0,408
-495,380	-108,787	-0,296	0,052
-494,366	427,127	0,036	-0,065
-493,351	93,384	0,256	-0,240
-492,337	654,063	0,176	0,376
-491,322	-200,000	0,070	0,266
-490,308	700,000	0,240	-0,725
-489,293	700,000	0,136	0,427
-488,278	461,074	-0,273	-0,505
-487,264	274,846	-0,241	-0,354
-486,249	-200,000	-0,003	-0,523
-485,235	-200,000	-0,005	0,165
-484,220	10,948	0,778	0,491
-483,205	-21,628	-0,098	-0,049
-482,191	-200,000	0,043	0,483
-481,176	151,511	0,218	0,245
-480,162	62,596	0,176	0,145
-479,147	271,542	-0,075	-0,109
-478,132	-52,816	-0,503	-0,191
-477,118	700,000	0,127	-0,306
-476,103	-200,000	0,055	-0,262
-475,089	700,000	-0,153	-0,409
-474,074	-160,518	0,473	0,021
-473,059	571,141	-0,179	-0,362
-472,045	-0,562	0,226	0,132
-471,030	-123,936	0,178	-0,023
-470,016	-200,000	0,011	-0,129
-469,001	-96,558	-0,332	0,072
-467,986	116,720	0,294	0,298
-466,972	-18,250	0,223	-0,115
-465,957	277,233	0,086	-0,126
-464,943	385,902	-0,291	-0,497
-463,928	105,860	-0,205	-0,200
-462,913	81,340	0,389	-0,348
-461,899	35,576	-0,206	0,149
-460,884	72,156	-0,332	0,286
-459,870	604,215	-0,210	-0,433
-458,855	165,714	0,328	0,384
-457,840	-56,374	-0,467	0,171
-456,826	339,015	-0,083	0,135
-455,811	52,578	0,185	-0,146
-454,797	-200,000	0,002	-0,332
-453,782	515,556	-0,191	-0,370
-452,768	90,581	0,606	-0,561
-451,753	-200,000	0,017	0,106
-450,738	101,190	0,323	-0,311
-449,724	-200,000	-0,037	0,160
-448,709	-200,000	0,060	0,442
-447,695	-75,210	-0,473	0,139
-446,680	-24,942	-0,352	0,172
-445,665	700,000	-0,112	0,370
-444,651	-68,476	0,536	0,171
-443,636	114,819	-0,288	-0,291
-442,622	253,652	0,174	0,246
-441,607	302,381	-0,329	0,504
-440,592	-7,431	-0,115	0,064
-439,578	692,593	-0,248	0,540
-438,563	-126,236	-0,108	0,013
-437,549	41,172	-0,368	-0,275
-436,534	22,041	0,203	-0,136
-435,519	-96,935	-0,438	0,094
-434,505	85,056	0,198	-0,179
-433,490	-200,000	-0,069	0,315
-432,476	-34,804	0,297	-0,134
-431,461	-69,742	0,199	0,063
-430,446	-44,790	0,433	-0,178
-429,432	170,640	0,466	0,552
-428,417	452,167	-0,180	0,329
-427,403	22,353	-0,127	0,086
-426,388	-33,712	0,420	-0,190
-425,373	700,000	-0,019	-0,061
-424,359	488,189	-0,084	-0,159
-423,344	-24,682	-0,373	-0,182
-422,330	-43,917	0,294	-0,121
-421,315	-6,658	0,235	-0,132
-420,300	198,395	-0,409	-0,517
-419,286	178,978	-0,257	0,311
-418,271	-49,651	-0,505	0,197
-417,257	-200,000	-0,095	-0,549
-416,242	700,000	-0,094	-0,217
-415,228	-11,688	-0,280	-0,151
-414,213	606,892	-0,101	-0,209
-413,198	570,145	-0,201	-0,406
-412,184	303,936	-0,164	0,251
-411,169	-200,000	-0,137	0,510
-410,155	120,669	-0,238	-0,244
-409,140	11,712	0,206	-0,130
-408,125	66,527	-0,442	0,371
-407,111	480,692	-0,067	0,126
-406,096	358,957	-0,200	-0,331
-405,082	-0,920	-0,545	0,318
-404,067	-200,000	-0,086	0,341
-403,052	-200,000	0,056	-0,400
-402,038	-132,529	-0,466	-0,049
-401,023	206,736	-0,039	0,050
-400,009	-53,227	0,130	0,049
-398,994	61,077	0,321	0,263
-397,979	82,244	-0,124	0,111
-396,965	72,306	-0,119	0,102
-395,950	-30,249	-0,129	-0,060
-394,936	58,392	-0,177	-0,143
-393,921	-10,331	0,290	0,158
-392,906	-200,000	0,020	0,259
-391,892	-200,000	-0,022	0,107
-390,877	-200,000	0,014	0,384
-389,863	-200,000	0,052	-0,235
-388,848	-98,579	-0,394	-0,082
-387,833	-200,000	0,055	-0,218
-386,819	700,000	0,150	0,327
-385,804	52,378	0,245	-0,192
-384,790	-137,987	0,130	-0,012
-383,775	638,630	0,172	-0,362
-382,760	-200,000	0,067	0,419
-381,746	700,000	0,191	0,435
-380,731	42,058	-0,288	0,215
-379,717	278,471	-0,198	-0,292
-378,702	150,592	-0,112	-0,126
-377,687	275,174	-0,317	-0,464
-376,673	173,461	-0,700	-0,833
-375,658	446,763	-0,050	-0,091
-374,644	-69,516	0,197	-0,062
-373,629	90,683	0,551	0,509
-372,615	69,574	0,340	0,288
-371,600	434,312	0,094	-0,168
-370,585	-200,000	0,011	0,049
-369,571	374,255	0,104	0,176
-368,556	700,000	-0,095	-0,275
-367,542	52,989	0,345	0,272
-366,527	59,685	-0,129	-0,105
-365,512	80,385	-0,149	-0,132
-364,498	118,252	0,342	-0,347
-363,483	-16,736	-0,262	-0,136
-362,469	70,121	-0,450	-0,383
-361,454	-74,027	-0,146	0,043
-360,439	513,921	0,352	0,678
-359,425	401,438	-0,293	0,508
-358,410	227,776	0,288	0,386
-357,396	569,658	0,209	0,419
-356,381	260,128	-0,101	0,144
-355,366	64,925	-0,038	0,031
-354,352	-200,000	0,021	-0,145
-353,337	140,974	-0,255	-0,278
-352,323	159,241	0,175	0,200
-351,308	-200,000	-0,005	0,303
-350,293	-167,416	0,123	0,004
-349,279	142,161	0,139	0,152
-348,264	68,499	-0,369	0,311
-347,250	700,000	0,099	0,323
-346,235	700,000	0,121	-0,294
-345,220	21,307	-0,286	-0,191
-344,206	700,000	0,168	-0,513
-343,191	-129,734	-0,580	-0,065
-342,177	-22,513	-0,735	-0,365
-341,162	117,829	0,182	-0,185
-340,147	700,000	0,107	0,346
-339,133	-200,000	0,074	0,448
-338,118	-38,304	-0,283	-0,123
-337,104	-200,000	-0,012	0,363
-336,089	71,092	-0,233	0,199
-335,075	-40,368	-0,344	-0,146
-334,060	601,810	0,335	0,687
-333,045	44,324	-0,216	-0,163
-332,031	-200,000	-0,031	-0,198
-331,016	700,000	-0,158	0,374
-330,002	-147,060	0,500	0,035
-328,987	4,455	-0,537	0,323
-327,972	391,738	-0,105	0,180
-326,958	-200,000	0,008	-0,191
-325,943	376,057	-0,190	-0,319
-324,929	47,033	-0,339	-0,259
-323,914	6,508	0,115	-0,070
-322,899	700,000	0,191	-0,629
-321,885	-200,000	0,025	-0,433
-320,870	-154,569	-0,196	0,011
-319,856	34,294	0,105	-0,075
-318,841	487,466	-0,062	0,116
-317,826	209,007	0,172	-0,222
-316,812	84,011	-0,041	0,037
-315,797	-86,961	0,710	0,177
-314,783	-36,093	0,207	0,092
-313,768	-62,831	-0,477	-0,162
-312,753	-200,000	0,001	0,024
-311,739	418,374	0,166	0,293
-310,724	119,350	-0,411	-0,418
-309,710	-200,000	0,024	-0,441
-308,695	476,152	-0,102	-0,190
-307,680	-75,997	0,603	0,174
-306,666	-80,096	-0,783	0,214
-305,651	55,903	0,247	0,197
-304,637	-200,000	-0,088	0,648
-303,622	-17,998	-0,168	0,086
-302,607	-144,209	0,405	-0,031
-301,593	8,457	-0,224	0,138
-300,578	-200,000	0,049	0,400
-299,564	241,697	-0,462	-0,635
-298,549	-200,000	0,083	-0,604
-297,535	342,080	-0,183	0,294
-296,520	-200,000	-0,052	0,349
-295,505	-200,000	-0,007	-0,473
-294,491	-41,556	-0,489	-0,206
-293,476	-29,300	0,275	-0,129
-292,462	700,000	0,041	0,100
-291,447	436,470	0,248	0,445
-290,432	-200,000	-0,012	-0,518
-289,418	-200,000	0,004	0,280
-288,403	-115,752	-0,119	-0,018
-287,389	66,746	-0,119	-0,099
-286,374	-200,000	0,028	0,328
-285,359	-200,000	-0,068	-0,286
-284,345	392,750	0,156	0,266
-283,330	-110,596	-0,153	-0,026
-282,316	-200,000	-0,106	-0,871
-281,301	60,788	-0,034	-0,027
-280,286	-6,215	0,300	-0,168
-279,272	37,927	-0,124	-0,090
-278,257	700,000	-0,152	-0,418
-277,243	341,509	0,143	-0,230
-276,228	700,000	0,072	-0,189
-275,213	289,788	-0,171	-0,255
-274,199	-200,000	0,017	0,165
-273,184	-21,876	0,338	-0,168
-272,170	700,000	-0,101	0,349
-271,155	93,850	-0,113	-0,105
-270,140	-200,000	-0,033	0,186
-269,126	0,773	-0,208	0,122
-268,111	700,000	-0,168	-0,378
-267,097	199,615	0,352	-0,444
-266,082	700,000	0,123	-0,371
-265,067	-66,482	0,273	0,089
-264,053	36,081	-0,166	-0,120
-263,038	75,017	0,534	-0,461
-262,024	-200,000	-0,079	-0,350
-261,009	-114,861	-0,208	0,032
-259,994	306,309	-0,277	-0,424
-258,980	-134,557	-0,038	0,004
-257,965	32,408	0,433	0,307
-256,951	700,000	0,100	-0,259
-255,936	700,000	0,077	0,200
-254,922	-200,000	0,112	-0,537
-253,907	123,182	0,209	0,215
-252,892	-135,233	0,153	0,015
-251,878	270,779	0,247	0,358
-250,863	-200,000	-0,079	-0,374
-249,849	-40,043	0,281	0,120
-248,834	621,286	0,303	-0,627
-247,819	465,378	-0,179	-0,329
-246,805	-128,202	-0,227	0,026
-245,790	637,984	0,167	0,348
-244,776	204,486	-0,273	0,348
-243,761	11,948	0,126	0,079
-242,746	700,000	-0,027	-0,089
-241,732	-200,000	0,032	-0,387
-240,717	402,456	-0,398	0,688
-239,703	700,000	0,074	0,219
-238,688	-65,247	-0,334	-0,110
-237,673	596,595	-0,270	-0,550
-236,659	148,429	-0,317	0,351
-235,644	21,679	0,184	0,122
-234,630	-63,749	0,250	0,084
-233,615	303,780	-0,011	-0,017
-232,600	-200,000	-0,034	0,140
-231,586	-65,974	0,233	-0,076
-230,571	-200,000	-0,021	-0,292
-229,557	-41,194	-0,511	-0,215
-228,542	700,000	-0,164	-0,440
-227,527	-200,000	0,045	0,201
-226,513	0,913	0,338	0,198
-225,498	700,000	-0,015	0,045
-224,484	700,000	0,100	0,358
-223,469	-133,446	0,792	-0,081
-222,454	-37,077	-0,156	-0,068
-221,440	-4,177	0,373	0,211
-220,425	169,688	0,050	-0,058
-219,411	76,698	0,119	-0,103
-218,396	259,301	0,194	-0,274
-217,382	700,000	-0,102	-0,342
-216,367	-107,190	0,170	-0,030
-215,352	-10,061	0,655	-0,355
-214,338	700,000	0,051	0,136
-213,323	-183,181	-0,564	0,008
-212,309	324,990	0,045	-0,070
-211,294	700,000	-0,211	0,593
-210,279	-127,998	0,372	0,043
-209,265	471,403	0,328	-0,607
-208,250	233,984	0,163	0,220
-207,236	-86,139	-0,394	0,099
-206,221	83,167	-0,235	-0,209
-205,206	-128,710	-0,108	0,012
-204,192	-50,476	-0,115	0,044
-203,177	0,014	-0,238	0,138
-202,163	94,212	-0,120	0,111
-201,148	-20,107	-0,260	-0,131
-200,133	-89,919	0,515	-0,122
-199,119	-113,425	0,643	0,102
-198,104	-200,000	0,019	0,485
-197,090	-55,679	0,112	0,041
-196,075	558,161	-0,181	0,359
-195,060	63,186	0,116	-0,095
-194,046	-200,000	-0,039	0,234
-193,031	-200,000	-0,008	-0,178
-192,017	240,763	-0,273	0,373
-191,002	-179,360	0,497	0,009
-189,987	-200,000	-0,017	0,179
-188,973	-110,313	-0,456	-0,077
-187,958	-147,940	0,449	0,030
-186,944	285,891	0,109	-0,161
-185,929	-200,000	-0,012	0,091
-184,914	208,318	-0,202	0,258
-183,900	115,013	-0,448	0,447
-182,885	43,379	-0,028	-0,021
-181,871	329,859	-0,211	-0,333
-180,856	70,213	0,366	-0,309
-179,842	-200,000	-0,000	0,018
-178,827	700,000	0,033	0,103
-177,812	198,128	0,150	-0,188
-176,798	66,868	-0,119	0,099
-175,783	229,680	-0,024	0,032
-174,769	226,760	-0,066	0,087
-173,754	47,678	0,120	0,091
-172,739	700,000	-0,067	-0,223
-171,725	-60,671	0,223	-0,077
-170,710	-175,213	0,478	-0,011
-169,696	20,950	0,210	0,139
-168,681	-118,649	0,413	-0,059
-167,666	508,142	0,303	-0,578
-166,652	-70,710	-0,694	0,213
-165,637	-200,000	-0,039	-0,354
-164,623	-188,272	0,303	0,003
-163,608	-200,000	0,039	0,519
-162,593	-200,000	0,031	-0,463
-161,579	700,000	0,132	0,320
-160,564	-200,000	-0,033	0,166
-159,550	-16,232	-0,163	-0,084
-158,535	46,392	0,130	-0,098
-157,520	700,000	-0,092	-0,276
-156,506	-118,044	0,351	-0,051
-155,491	700,000	0,086	0,239
-154,477	101,572	0,162	0,154
-153,462	88,781	0,178	0,162
-152,447	-95,615	-0,152	-0,033
-151,433	-103,529	0,266	0,051
-150,418	-200,000	-0,096	-0,374
-149,404	-153,876	0,689	-0,038
-148,389	340,780	0,246	-0,393
-147,374	-113,235	0,038	0,006
-146,360	445,364	-0,148	0,266
-145,345	55,074	0,321	-0,253
-144,331	-156,640	-0,583	0,029
-143,316	-200,000	0,007	0,178
-142,302	152,682	-0,209	-0,234
-141,287	-63,778	-0,258	-0,086
-140,272	-156,289	-0,406	-0,020
-139,258	17,212	0,262	-0,170
-138,243	106,642	0,379	0,367
-137,229	-197,508	-0,390	0,002
-136,214	5,352	0,389	0,234
-135,199	-200,000	-0,076	-0,541
-134,185	-200,000	0,073	0,624
-133,170	-200,000	-0,083	-0,508
-132,156	14,649	-0,322	-0,205
-131,141	139,639	-0,170	-0,183
-130,126	-74,404	-0,149	-0,044
-129,112	9,858	-0,224	0,139
-128,097	-200,000	-0,033	0,245
-127,083	-17,101	-0,354	0,182
-126,068	439,420	-0,251	0,448
-125,053	-149,336	0,211	0,013
-124,039	-200,000	0,106	0,483
-123,024	205,878	0,118	-0,150
-122,010	-89,287	-0,102	0,024
-120,995	289,448	-0,257	-0,382
-119,980	-175,786	-0,285	-0,006
-118,966	700,000	-0,112	0,356
-117,951	-200,000	0,125	-0,555
-116,937	95,985	-0,310	0,289
-115,922	-64,450	-0,616	-0,203
-114,907	91,947	-0,289	-0,265
-113,893	58,284	0,401	-0,321
-112,878	700,000	0,112	-0,279
-111,864	217,117	-0,287	0,374
-110,849	-96,873	-0,163	0,035
-109,834	700,000	0,148	0,364
-108,820	-164,489	-0,667	-0,024
-107,805	51,022	-0,209	0,161
-106,791	700,000	-0,155	-0,469
-105,776	191,715	0,152	-0,187
-104,761	-104,930	0,294	-0,054
-103,747	-200,000	-0,005	-0,029
-102,732	-42,617	0,469	0,194
-101,718	189,345	-0,143	0,175
-100,703	700,000	0,320	0,752
-99,689	-75,902	-0,572	0,164
-98,674	241,229	0,199	-0,271
-97,659	321,076	-0,116	0,180
-96,645	-93,522	-0,535	0,120
-95,630	13,379	0,120	-0,076
-94,616	635,671	0,066	0,137
-93,601	-110,879	-0,305	-0,051
-92,586	271,380	-0,233	0,335
-91,572	-200,000	-0,002	-0,348
-90,557	74,002	-0,199	-0,170
-89,543	77,562	0,419	-0,363
-88,528	-200,000	0,039	0,265
-87,513	101,398	0,176	0,167
-86,499	54,238	0,300	0,235
-85,484	13,827	-0,127	0,080
-84,470	-200,000	-0,380	0,001
-83,455	335,295	-0,218	-0,345
-82,440	-200,000	-0,028	-0,224
-81,426	-173,672	0,736	-0,018
-80,411	-108,441	-0,569	0,099
-79,397	-200,000	-0,007	0,357
-78,382	-38,046	0,168	0,072
-77,367	13,732	0,397	-0,251
-76,353	442,311	0,085	0,152
-75,338	31,735	-0,312	-0,218
-74,324	-98,710	0,177	-0,036
-73,309	149,614	0,159	0,176
-72,294	-65,000	-0,125	-0,041
-71,280	693,838	0,172	0,370
-70,265	40,002	-0,307	0,224
-69,251	437,151	0,174	0,309
-68,236	-200,000	-0,015	-0,281
-67,221	106,684	-0,460	-0,445
-66,207	-81,279	-0,431	-0,115
-65,192	700,000	-0,153	0,452
-64,178	700,000	-0,221	-0,551
-63,163	-200,000	0,088	-0,383
-62,149	-200,000	0,000	0,303
-61,134	151,249	-0,583	0,647
-60,119	640,874	-1,847	-3,843
-59,105	-1,116	1,166	0,669
-58,090	132,532	0,566	-0,595
-57,076	700,000	3,294	7,277
-56,061	83,908	60,372	53,613
-55,046	431,364	1149,012	2032,159
-54,032	303,173	2184,615	3300,637
-53,017	99,363	2004,222	1885,831
-52,003	30,920	1751,389	1219,065
-50,988	22,136	1551,160	1028,229
-49,973	17,509	1482,117	956,360
-48,959	15,954	1463,856	935,858
-47,944	15,536	1458,836	930,285
-46,930	15,702	1454,640	928,497
-45,915	15,517	1451,685	925,547
-44,900	15,509	1450,244	924,547
-43,886	15,552	1446,956	922,653
-42,871	15,460	1444,857	920,768
-41,857	15,508	1443,469	920,111
-40,842	15,504	1441,453	918,767
-39,827	15,343	1440,359	917,152
-38,813	15,469	1438,180	916,419
-37,798	15,376	1437,334	915,336
-36,784	15,596	1435,275	915,188
-35,769	15,452	1434,302	913,746
-34,754	15,420	1432,701	912,515
-33,740	15,304	1431,577	911,127
-32,725	15,457	1429,358	910,517
-31,711	15,372	1428,587	909,525
-30,696	15,449	1427,347	909,119
-29,681	15,416	1425,908	907,988
-28,667	15,366	1424,618	906,855
-27,652	15,380	1423,175	905,979
-26,638	15,376	1421,192	904,658
-25,623	15,215	1420,655	903,410
-24,609	15,535	1418,771	903,905
-23,594	15,411	1417,155	902,172
-22,579	15,375	1417,438	902,119
-21,565	15,407	1415,979	901,329
-20,550	15,332	1415,189	900,385
-19,536	15,271	1413,789	899,128
-18,521	15,437	1412,248	899,010
-17,506	15,385	1411,249	898,058
-16,492	15,356	1410,038	897,095
-15,477	15,303	1409,709	896,566
-14,463	15,443	1407,657	895,973
-13,448	15,424	1407,026	895,436
-12,433	15,259	1406,713	894,317
-11,419	15,306	1404,788	893,309
-10,404	15,350	1403,334	892,584
-9,390	15,222	1403,478	891,958
-8,375	15,330	1402,630	891,961
-7,360	15,243	1401,357	890,648
-6,346	15,409	1400,086	890,690
-5,331	15,368	1399,752	890,226
-4,317	15,306	1396,396	887,724
-3,302	15,045	1396,315	886,251
-2,287	15,247	1395,696	886,895
-1,273	15,221	1396,035	886,936
-0,258	14,633	1397,759	884,868
0,756	11,892	1360,051	848,041
1,771	6,331	1294,827	779,697
2,786	3,223	1265,488	746,841
3,800	2,554	1259,134	739,800
4,815	1,631	1253,882	732,205
5,829	1,012	1249,087	726,378
6,844	0,401	1248,009	722,765
7,859	0,654	1244,867	722,118
8,873	0,812	1241,880	721,096
9,888	0,607	1240,507	719,274
10,902	0,589	1239,343	718,470
11,917	0,574	1237,210	717,118
12,931	0,617	1235,547	716,318
13,946	0,715	1232,648	715,058
14,961	0,785	1231,279	714,550
15,975	0,744	1229,624	713,355
16,990	0,759	1227,579	712,192
18,004	0,613	1226,683	710,939
19,019	0,846	1224,366	710,655
20,034	0,771	1222,907	709,411
21,048	0,759	1220,620	707,984
22,063	0,851	1218,573	707,186
23,077	0,853	1216,980	706,228
24,092	0,743	1216,830	705,582
25,107	0,637	1215,438	704,234
26,121	0,770	1212,571	703,155
27,136	0,803	1210,528	702,081
28,150	1,041	1207,662	701,482
29,165	1,090	1204,542	699,854
30,180	1,059	1202,321	698,380
31,194	1,056	1199,205	696,510
32,209	1,141	1195,706	694,831
33,223	1,305	1191,258	692,956
34,238	1,248	1187,297	690,346
35,253	1,482	1184,558	689,781
36,267	1,451	1182,945	688,658
37,282	1,289	1181,217	686,873
38,296	1,266	1179,830	685,919
39,311	1,478	1178,968	686,338
40,326	1,282	1178,378	685,063
41,340	1,344	1176,937	684,466
42,355	1,612	1175,635	684,881
43,369	1,535	1174,620	683,902
44,384	1,511	1173,251	682,952
45,399	1,471	1173,119	682,655
46,413	1,547	1171,014	681,730
47,428	1,689	1169,525	681,460
48,442	1,483	1168,517	679,905
49,457	1,392	1167,784	679,027
50,472	1,639	1166,260	679,211
51,486	1,491	1166,183	678,460
52,501	1,432	1164,625	677,247
53,515	1,300	1164,426	676,499
54,530	1,515	1162,262	676,160
55,544	1,406	1162,205	675,597
56,559	1,499	1160,491	674,978
57,574	1,417	1160,344	674,482
58,588	1,598	1159,022	674,482
59,603	1,422	1157,884	672,993
60,617	1,615	1156,690	673,118
61,632	1,502	1155,890	672,109
62,647	1,550	1154,504	671,477
63,661	1,380	1152,994	669,801
64,676	1,401	1152,315	669,459
65,690	1,427	1150,856	668,686
66,705	1,417	1150,147	668,189
67,720	1,502	1149,166	667,953
68,734	1,465	1148,110	667,138
69,749	1,461	1147,122	666,504
70,763	1,655	1145,439	666,341
71,778	1,490	1145,220	665,446
72,793	1,603	1143,751	665,049
73,807	1,926	1143,478	666,267
74,822	2,948	1145,136	671,686
75,836	4,563	1145,684	679,066
76,851	5,102	1144,394	680,622
77,866	5,072	1143,062	679,658
78,880	4,959	1141,777	678,359
79,895	5,114	1141,029	678,549
80,909	4,826	1139,542	676,365
81,924	4,692	1138,278	674,988
82,939	4,854	1137,337	675,097
83,953	4,627	1135,446	672,947
84,968	2,975	1132,224	663,824
85,982	2,035	1130,387	658,633
86,997	1,997	1127,680	656,851
88,012	1,967	1128,012	656,872
89,026	2,422	1126,493	657,913
90,041	2,027	1125,392	655,528
91,055	1,920	1124,312	654,394
92,070	2,273	1123,481	655,392
93,084	2,620	1123,779	657,024
94,099	2,303	1122,457	654,847
95,114	2,222	1121,057	653,638
96,128	2,140	1119,634	652,421
97,143	1,722	1118,766	650,078
98,157	1,597	1117,302	648,652
99,172	1,630	1116,335	648,192
100,187	1,673	1115,239	647,701
101,201	1,921	1113,413	647,661
102,216	1,734	1113,270	646,739
103,230	1,751	1111,323	645,643
104,245	1,502	1111,025	644,369
105,260	1,743	1109,452	644,443
106,274	1,699	1108,544	643,688
107,289	1,804	1107,569	643,531
108,303	1,864	1106,103	642,891
109,318	1,724	1105,064	641,658
110,333	1,779	1103,943	641,198
111,347	1,570	1103,840	640,214
112,362	1,660	1102,172	639,591
113,376	1,678	1101,052	638,975
114,391	1,637	1099,525	637,880
115,406	1,610	1098,665	637,225
116,420	1,483	1098,112	636,333
117,435	1,577	1096,585	635,806
118,449	1,524	1095,461	634,893
119,464	1,484	1094,530	634,148
120,479	1,673	1093,338	634,209
121,493	1,569	1092,569	633,290
122,508	1,493	1090,868	631,946
123,522	1,240	1089,538	630,081
124,537	1,389	1088,827	630,255
125,552	1,233	1087,268	628,663
126,566	1,280	1085,973	628,073
127,581	1,060	1085,628	626,917
128,595	1,125	1084,293	626,378
129,610	0,991	1083,641	625,409
130,624	1,115	1083,244	625,654
131,639	1,232	1081,428	625,054
132,654	1,021	1080,344	623,515
133,668	1,122	1079,147	623,203
134,683	1,074	1079,600	623,229
135,697	1,128	1078,474	622,764
136,712	1,123	1077,495	622,141
137,727	1,231	1076,790	622,142
138,741	1,297	1076,420	622,163
139,756	1,065	1075,292	620,515
140,770	1,223	1074,531	620,688
141,785	0,969	1073,639	619,090
142,800	0,986	1073,638	619,121
143,814	1,135	1071,844	618,664
144,829	1,141	1071,342	618,359
145,843	1,260	1070,740	618,460
146,858	1,154	1070,127	617,636
147,873	1,118	1069,326	616,990
148,887	1,189	1068,205	616,595
149,902	1,261	1067,070	616,194
150,916	1,177	1065,456	614,882
151,931	1,201	1064,885	614,614
152,946	1,263	1064,378	614,538
153,960	1,346	1062,735	613,886
154,975	1,192	1062,166	612,897
155,989	1,212	1060,801	612,152
157,004	1,301	1059,734	611,860
158,019	1,342	1058,486	611,270
159,033	1,096	1057,344	609,577
160,048	1,051	1057,010	609,165
161,062	0,656	1055,823	606,852
162,077	0,830	1053,997	606,466
163,092	0,826	1052,872	605,765
164,106	0,940	1052,306	605,861
165,121	0,689	1051,856	604,554
166,135	0,951	1051,024	605,090
167,150	0,895	1050,022	604,255
168,165	1,014	1049,731	604,526
169,179	1,175	1048,441	604,393
170,194	1,439	1047,512	604,877
171,208	1,442	1046,471	604,251
172,223	1,462	1046,367	604,235
173,237	1,561	1045,402	604,033
174,252	1,608	1044,845	603,865
175,267	1,582	1044,011	603,243
176,281	1,495	1042,916	602,227
177,296	1,894	1041,755	603,103
178,310	1,757	1041,058	602,120
179,325	1,853	1039,656	601,654
180,340	1,965	1039,593	602,024
181,354	1,752	1039,409	601,038
182,369	1,811	1038,467	600,687
183,383	1,630	1038,288	599,832
184,398	1,694	1036,515	599,025
185,413	1,749	1036,100	598,966
186,427	1,831	1035,629	598,982
187,442	1,769	1035,039	598,357
188,456	1,873	1034,193	598,244
189,471	1,913	1032,828	597,576
190,486	1,950	1031,633	596,993
191,500	1,992	1031,058	596,789
192,515	1,845	1030,483	595,842
193,529	1,921	1030,428	596,073
194,544	1,888	1029,906	595,603
195,559	1,894	1029,230	595,200
196,573	2,035	1028,549	595,324
197,588	2,351	1028,723	596,625
198,602	2,574	1027,645	596,837
199,617	2,112	1026,367	594,254
200,632	2,132	1025,840	593,989
201,646	2,182	1025,766	594,106
202,661	2,315	1024,450	593,826
203,675	2,197	1022,770	592,356
204,690	2,232	1023,182	592,695
205,705	3,390	1025,217	598,359
206,719	4,722	1026,639	604,357
207,734	4,599	1023,406	601,937
208,748	3,034	1022,571	595,318
209,763	3,362	1022,200	596,343
210,777	3,934	1021,815	598,308
211,792	4,267	1017,584	597,084
212,807	4,204	1012,919	594,066
213,821	4,207	1010,139	592,413
214,836	3,766	1007,836	589,336
215,850	2,675	1006,074	584,091
216,865	2,207	1004,467	581,334
217,880	3,175	1004,339	584,925
218,894	4,694	1005,656	591,465
219,909	5,340	1005,404	593,746
220,923	5,628	1003,821	593,872
221,938	5,604	1003,397	593,493
222,953	5,715	1002,271	593,213
223,967	5,640	1001,596	592,494
224,982	5,921	1000,028	592,598
225,996	5,905	999,691	592,301
227,011	5,727	999,028	591,198
228,026	5,012	996,479	586,947
229,040	3,171	993,277	578,080
230,055	2,223	991,748	573,576
231,069	1,983	990,719	572,043
232,084	2,143	988,863	571,538
233,099	1,836	988,252	569,995
234,113	2,022	987,334	570,132
235,128	2,453	986,871	571,446
236,142	2,672	986,736	572,155
237,157	2,513	984,548	570,255
238,172	2,190	983,347	568,318
239,186	2,113	982,142	567,300
240,201	2,156	980,780	566,638
241,215	2,004	979,510	565,306
242,230	2,001	978,056	564,419
243,245	1,934	977,067	563,565
244,259	2,110	976,034	563,589
245,274	2,068	974,476	562,498
246,288	1,996	973,819	561,819
247,303	2,176	972,905	561,922
248,317	1,981	972,398	560,874
249,332	1,911	971,596	560,122
250,347	1,925	970,482	559,494
251,361	2,070	969,278	559,302
252,376	1,852	968,657	558,104
253,390	1,716	967,396	556,847
254,405	1,557	966,293	555,594
255,420	1,872	966,094	556,600
256,434	1,842	965,440	556,080
257,449	2,153	963,684	556,173
258,463	1,990	963,236	555,285
259,478	1,909	962,205	554,359
260,493	1,875	961,807	553,972
261,507	2,035	960,955	554,032
262,522	2,296	959,195	553,935
263,536	1,850	959,053	552,195
264,551	2,124	957,792	552,430
265,566	1,929	957,418	551,472
266,580	1,981	956,362	551,022
267,595	2,070	954,885	550,456
268,609	2,039	954,598	550,147
269,624	2,022	954,192	549,817
270,639	1,884	953,430	548,847
271,653	2,094	951,964	548,728
272,668	2,282	950,652	548,616
273,682	2,037	950,885	547,834
274,697	1,910	950,143	546,915
275,712	2,009	949,426	546,826
276,726	1,801	949,290	545,963
277,741	2,006	947,833	545,830
278,755	2,166	947,051	545,919
279,770	2,285	946,494	545,992
280,785	2,049	945,084	544,301
281,799	1,954	944,887	543,812
282,814	1,997	944,002	543,427
283,828	2,020	942,870	542,823
284,843	1,915	942,620	542,270
285,857	2,105	940,965	541,964
286,872	1,746	940,750	540,527
287,887	2,005	939,319	540,595
288,901	2,236	938,868	541,123
289,916	2,230	938,079	540,614
290,930	2,050	937,837	539,801
291,945	2,235	936,916	539,894
292,960	2,099	936,379	539,072
293,974	2,363	935,433	539,429
294,989	2,450	934,748	539,309
296,003	2,570	933,632	539,058
297,018	2,707	933,209	539,265
298,033	2,436	931,929	537,534
299,047	2,152	930,879	535,897
300,062	2,349	930,678	536,440
301,076	2,306	930,145	535,951
302,091	2,307	929,521	535,561
303,106	2,397	929,633	535,908
304,120	4,246	930,868	543,101
305,135	5,586	931,356	548,071
306,149	5,575	931,997	548,377
307,164	5,712	931,132	548,315
308,179	5,591	929,814	547,082
309,193	5,857	929,035	547,524
310,208	6,027	927,871	547,400
311,222	5,499	926,999	545,005
312,237	5,659	925,918	544,893
313,252	5,502	926,283	544,525
314,266	5,886	924,955	545,054
315,281	5,892	925,167	545,166
316,295	5,659	924,194	543,747
317,310	5,331	923,158	541,961
318,325	4,486	921,229	537,857
319,339	2,991	919,141	531,408
320,354	2,330	917,719	528,260
321,368	2,281	916,951	527,618
322,383	2,040	917,446	527,032
323,398	2,129	916,382	526,697
324,412	2,086	916,131	526,372
325,427	2,043	915,042	525,566
326,441	1,958	915,191	525,323
327,456	2,045	915,388	525,709
328,470	2,177	913,340	524,954
329,485	2,327	913,316	525,428
330,500	1,911	912,970	523,761
331,514	2,076	912,475	524,015
332,529	2,229	911,710	524,069
333,543	2,113	911,427	523,477
334,558	2,170	910,923	523,351
335,573	3,157	911,592	527,101
336,587	10,683	868,907	527,022
337,602	57,886	501,004	390,391
338,616	119,123	114,352	112,728
339,631	47,209	15,557	11,527
340,646	83,294	2,204	1,912
341,660	-200,000	-0,017	-0,125
342,675	-148,004	-0,831	0,054
343,689	-96,398	-0,802	-0,168
344,704	-46,056	-1,248	-0,488
345,719	152,834	-0,782	-0,852
346,733	-49,209	-1,510	-0,572
347,748	101,147	-1,070	-0,991
348,762	152,811	-0,846	-0,922
349,777	-99,965	-0,779	-0,154
350,792	-101,752	-1,006	-0,192
351,806	-53,840	-1,335	-0,482
352,821	339,706	-0,612	-0,953
353,835	103,004	-1,059	-0,988
354,850	18,577	-1,087	-0,690
355,865	167,146	-0,964	-1,091
356,879	50,565	-0,986	-0,742
357,894	82,510	-1,043	-0,901
358,908	-5,727	-1,200	-0,653
359,923	-7,998	-1,332	-0,713
360,938	51,981	-0,720	-0,545
361,952	134,164	-0,897	-0,925
362,967	-42,532	-0,971	-0,392
363,981	-76,111	-1,443	-0,403
364,996	26,874	-0,915	-0,609
366,010	186,546	-0,705	-0,836
367,025	-16,012	-1,222	-0,617
368,040	-59,965	-1,220	-0,413
369,054	-24,368	-1,488	-0,703
370,069	97,023	-0,924	-0,843
371,083	-13,969	-1,155	-0,592
372,098	17,325	-0,666	-0,420
373,113	72,917	-0,873	-0,725
374,127	122,285	-0,764	-0,760
375,142	174,678	-0,792	-0,912
376,156	67,872	-1,107	-0,900
377,171	229,599	-0,868	-1,129
378,186	45,259	-1,084	-0,794
379,200	-85,071	-1,400	-0,346
380,215	-8,818	-0,847	-0,450
381,229	100,962	-0,966	-0,893
382,244	130,090	-1,209	-1,230
383,259	-43,403	-1,378	-0,551
384,273	93,742	-0,966	-0,870
385,288	15,638	-0,759	-0,473
386,302	-39,270	-0,837	-0,348
387,317	-25,076	-1,191	-0,559
388,332	-96,177	-0,816	-0,171
389,346	5,826	-0,989	-0,580
390,361	26,587	-0,832	-0,552
391,375	-72,459	-0,714	-0,208
392,390	-120,605	-1,147	-0,153
393,405	106,322	-0,945	-0,889
394,419	1,671	-0,907	-0,518
395,434	124,249	-0,637	-0,636
396,448	-43,608	-0,978	-0,390
397,463	36,945	-1,226	-0,860
398,478	15,731	-1,061	-0,661
399,492	-37,935	-0,973	-0,409
400,507	-40,529	-1,082	-0,444
401,521	-70,341	-1,294	0,387
402,536	172,890	-0,698	-0,799
403,550	-67,019	-0,565	0,176
404,565	-87,813	-1,135	-0,269
405,580	-44,951	-0,880	-0,346
406,594	-94,746	-1,480	-0,316
407,609	-60,154	-1,182	-0,398
408,623	39,401	-0,910	-0,646
409,638	-8,480	-0,854	-0,454
410,653	-118,912	-1,077	-0,149
411,667	-79,122	-1,046	-0,280
412,682	71,710	-1,266	-1,043
413,696	67,612	-0,771	-0,624
414,711	6,305	-1,084	-0,637
415,726	480,494	-0,362	-0,653
416,740	0,960	-1,318	-0,748
417,755	700,000	-0,306	-0,931
418,769	-15,663	-0,834	-0,421
419,784	73,900	-1,005	-0,835
420,799	453,964	-0,663	-1,168
421,813	20,115	-0,783	-0,500
422,828	-14,959	-1,132	-0,574
423,842	3,515	-1,376	-0,794
424,857	-39,767	-0,851	-0,351
425,872	134,911	-0,327	-0,337
426,886	79,606	-0,901	-0,766
427,901	53,663	-0,618	-0,470
428,915	-80,389	-1,217	-0,320
429,930	-34,088	-1,110	-0,482
430,945	-47,180	-0,864	-0,332
431,959	-170,635	-0,903	0,024
432,974	5,465	-1,119	-0,653
433,988	-34,529	-0,924	-0,399
435,003	244,235	-0,719	-0,958
436,018	-15,593	-1,254	-0,632
437,032	53,825	-0,525	-0,399
438,047	-115,014	-0,776	0,116
439,061	108,671	-0,936	-0,885
440,076	87,621	-0,756	-0,663
441,091	50,328	-0,998	-0,746
442,105	-66,524	-0,837	-0,262
443,120	-51,318	-1,183	-0,436
444,134	139,936	-0,769	-0,803
445,149	432,820	-0,618	-1,065
446,163	84,531	-0,542	-0,470
447,178	53,791	-0,456	-0,347
448,193	-173,150	-0,808	-0,019
449,207	-29,800	-1,030	-0,463
450,222	117,597	-0,665	-0,648
451,236	24,641	-0,904	-0,591
452,251	-124,907	-0,861	0,104
453,266	14,563	-0,662	-0,409
454,280	33,124	-1,044	-0,715
455,295	8,875	-1,106	-0,659
456,309	-111,817	-0,771	0,122
457,324	-100,097	-0,706	-0,138
458,339	-82,551	-0,629	-0,160
459,353	-28,985	-0,671	-0,304
460,368	700,000	-0,298	-0,639
461,382	160,697	-0,444	-0,491
462,397	535,752	-0,414	-0,780
463,412	-56,257	-0,959	-0,336
464,426	15,663	-0,694	-0,430
465,441	-92,329	-0,639	-0,141
466,455	150,750	-0,488	-0,525
467,470	29,039	-0,811	-0,543
468,485	-94,899	-0,912	-0,194
469,499	404,655	-0,379	-0,634
470,514	-71,261	-0,935	-0,276
471,528	30,659	-0,742	-0,501
472,543	202,650	-0,351	-0,429
473,558	13,812	-1,167	-0,715
474,572	-65,781	-1,236	-0,389
475,587	25,627	-0,909	-0,597
476,601	26,467	-0,685	-0,452
477,616	150,588	-0,832	-0,894
478,631	-30,068	-0,559	-0,250
479,645	-103,901	-0,875	-0,160
480,660	-1,482	-0,849	-0,472
481,674	21,470	-1,008	-0,646
482,689	-48,560	-0,434	0,164
483,703	95,782	-0,349	-0,315
484,718	-1,937	-0,749	-0,415
485,733	-28,546	-1,016	-0,461
486,747	51,117	-0,703	-0,526
487,762	-38,581	-0,819	-0,340
488,776	87,275	-0,668	-0,583
489,791	127,262	-0,819	-0,821
490,806	14,672	-0,757	-0,466
491,820	-85,751	-0,880	-0,214
492,835	102,676	-0,381	-0,352
493,849	52,924	-0,523	-0,395
494,864	107,737	-0,336	-0,316
495,879	130,066	-0,806	-0,815
496,893	-2,871	-0,408	-0,224
497,908	264,132	-0,677	-0,931
498,922	310,554	-0,888	-1,316
499,937	311,384	-0,501	-0,744
500,952	-63,280	-0,523	0,169
501,966	485,047	-0,553	-0,998
502,981	146,675	-0,724	-0,769
503,995	-114,100	-0,853	-0,129
505,010	-15,770	-1,011	-0,507
506,025	-49,702	-0,949	-0,354
507,039	505,385	-0,305	-0,560
508,054	73,428	-0,798	-0,659
509,068	-135,750	-0,909	0,084
510,083	-127,104	-0,687	-0,079
511,098	-82,396	-0,976	0,248
512,112	156,405	-0,634	-0,690
513,127	238,612	-0,506	-0,664
514,141	5,076	-0,344	-0,199
515,156	-4,760	-0,657	-0,356
516,171	700,000	-0,138	-0,414
517,185	-50,809	-0,411	-0,151
518,200	-16,444	-0,672	-0,335
519,214	-39,375	-0,569	-0,234
520,229	566,004	-0,241	-0,463
521,243	130,563	-0,821	-0,830
522,258	40,582	-0,857	-0,607
523,273	113,600	-0,206	-0,197
524,287	-38,886	-0,602	-0,249
525,302	88,530	-0,759	-0,665
526,316	-178,736	-0,706	-0,012
527,331	-39,646	-0,415	-0,170
528,346	700,000	-0,159	-0,380
529,360	-178,137	-0,648	0,012
530,375	-20,046	-0,241	-0,117
531,389	-200,000	-0,059	-0,250
532,404	230,919	-0,408	-0,527
533,419	-24,743	-0,814	-0,380
534,433	700,000	-0,122	-0,352
535,448	11,736	-0,991	-0,598
536,462	32,193	-0,659	-0,447
537,477	263,826	-0,363	-0,498
538,492	-2,542	-0,830	-0,456
539,506	-65,880	-0,521	0,163
540,521	39,860	-0,510	-0,360
541,535	-46,346	-0,673	-0,259
542,550	-117,826	-0,742	0,104
543,565	-119,296	-0,425	0,058
544,579	-29,255	-0,808	-0,363
545,594	193,992	-0,422	-0,504
546,608	130,241	-0,283	-0,285
547,623	151,369	-0,397	-0,426
548,638	168,429	-0,645	-0,724
549,652	-125,642	-0,476	-0,056
550,667	-100,830	-0,328	-0,063
551,681	-110,446	-0,900	-0,146
552,696	135,219	-0,568	-0,581
553,711	50,872	-0,608	-0,452
554,725	-22,924	-0,323	0,153
555,740	39,646	-0,673	-0,474
556,754	25,521	-0,554	-0,362
557,769	174,461	-0,347	-0,396
558,783	700,000	-0,203	-0,674
559,798	-197,835	-0,668	-0,003
560,813	-200,000	-0,167	-0,745
561,827	-31,798	-0,632	0,278
562,842	84,089	-0,654	-0,562
563,856	-104,663	-0,720	-0,129
564,871	355,944	-0,392	-0,615
565,886	-92,091	-0,848	-0,187
566,900	62,402	-0,532	-0,417
567,915	76,159	-0,069	0,057
568,929	-138,569	-0,604	0,051
569,944	54,278	-0,652	-0,493
570,959	396,926	-0,377	-0,621
571,973	65,350	-0,575	-0,457
572,988	89,518	-0,562	-0,493
574,002	64,748	-0,276	-0,219
575,017	700,000	0,035	-0,103
576,032	9,864	-0,650	-0,387
577,046	21,531	-0,742	-0,473
578,061	107,626	-0,772	-0,722
579,075	175,056	-0,525	-0,598
580,090	24,503	-0,501	-0,325
581,105	-200,000	-0,102	-0,899
582,119	-200,000	0,013	-0,813
583,134	-178,953	-0,314	0,005
584,148	-200,000	-0,189	-0,656
585,163	-17,004	-0,252	-0,125
586,178	125,148	-0,369	-0,365
587,192	700,000	-0,100	0,242
588,207	20,156	-0,904	-0,571
589,221	-85,864	-0,729	-0,176
590,236	28,545	-0,635	-0,421
591,251	376,945	-0,319	-0,512
592,265	180,148	-0,292	-0,337
593,280	161,342	-0,474	-0,521
594,294	-128,914	-0,711	-0,077
595,309	-96,059	-0,475	-0,098
596,324	677,815	-0,106	-0,217
597,338	-38,694	-0,475	-0,196
598,353	-56,599	-0,610	-0,211
599,367	-60,373	-0,722	-0,240
600,382	-89,255	-0,329	-0,076
601,396	-127,829	-0,782	0,087
602,411	-82,064	-1,027	-0,261
603,426	-200,000	-0,515	-0,002
604,440	23,525	-0,414	-0,267
605,455	25,648	-0,476	-0,310
606,469	-30,153	-0,399	-0,177
607,484	109,357	-0,665	-0,624
608,499	85,249	-0,537	-0,462
609,513	-41,778	-0,498	-0,199
610,528	191,337	-0,580	-0,686
611,542	55,544	-0,573	-0,434
612,557	-66,545	-0,757	-0,234
613,572	-15,847	-0,637	-0,317
614,586	236,821	-0,381	0,496
615,601	216,047	-0,396	-0,494
616,615	146,296	-0,278	-0,292
617,630	8,305	-0,862	-0,506
618,645	-200,000	-0,039	-0,194
619,659	700,000	0,059	-0,195
620,674	-19,870	-0,846	-0,408
621,688	82,116	-0,693	-0,589
622,703	-123,953	-0,440	0,054
623,718	42,778	-0,338	-0,241
624,732	-89,909	-0,324	0,074
625,747	114,079	-0,585	-0,557
626,761	6,269	-0,182	-0,106
627,776	24,399	-0,284	-0,183
628,791	-200,000	-0,199	-0,800
629,805	-200,000	-0,031	-0,146
630,820	-200,000	-0,067	-0,341
631,834	-16,998	-0,332	-0,164
632,849	377,961	-0,136	-0,218
633,864	700,000	-0,125	-0,273
634,878	22,989	-0,448	0,287
635,893	-8,537	-0,806	-0,422
636,907	-67,958	-0,438	0,133
637,922	32,538	-0,541	-0,365
638,936	-127,519	-0,101	-0,011
639,951	-200,000	-0,015	-0,601
640,966	259,460	-0,206	-0,279
641,980	700,000	-0,247	-0,523
642,995	86,723	-0,197	-0,170
644,009	-1,181	-0,508	0,280
645,024	-72,552	-0,642	-0,184
646,039	115,128	-0,883	-0,843
647,053	180,053	-0,669	-0,768
648,068	-200,000	-0,107	-0,620
649,082	60,601	-0,271	0,210
650,097	334,060	-0,297	-0,450
651,112	-65,237	-0,201	0,063
652,126	-129,488	-0,222	0,024
653,141	172,974	-0,441	-0,498
654,155	490,246	-0,294	-0,528
655,170	14,120	-0,378	-0,230
656,185	700,000	-0,167	-0,572
657,199	700,000	-0,202	-0,569
658,214	86,092	-0,521	-0,448
659,228	-115,616	-0,486	0,071
660,243	700,000	-0,102	-0,266
661,258	-156,075	-0,652	-0,032
662,272	206,851	-0,474	-0,579
663,287	383,760	-0,290	-0,467
664,301	-27,792	-0,334	-0,151
665,316	-23,899	-0,204	-0,095
666,331	-200,000	0,105	0,378
667,345	-200,000	0,048	-0,268
668,360	-49,644	-0,446	-0,165
669,374	-32,844	-0,525	-0,227
670,389	-191,648	-0,916	-0,007
671,404	99,424	-0,641	-0,579
672,418	-146,833	-0,586	-0,039
673,433	700,000	-0,212	-0,705
674,447	700,000	-0,330	-0,804
675,462	126,907	-0,648	-0,642
676,476	700,000	-0,104	-0,349
677,491	-50,270	-0,232	0,085
678,506	-51,383	-0,388	0,141
679,520	441,998	-0,090	-0,154
680,535	-113,285	-0,570	-0,087
681,549	-200,000	-0,155	-0,670
682,564	141,494	-0,501	-0,518
683,579	657,717	-0,294	-0,592
684,593	486,622	-0,090	0,161
685,608	-59,172	-0,637	0,213
686,622	40,940	-0,540	-0,380
687,637	-200,000	0,064	-0,304
688,652	-200,000	-0,080	-0,545
689,666	-200,000	-0,018	0,310
690,681	-200,000	-0,025	-0,503
691,695	-123,767	0,211	-0,026
692,710	13,385	-0,965	-0,583
693,725	25,092	-0,277	-0,179
694,739	-200,000	-0,021	-0,754
695,754	-200,000	-0,069	0,678
696,768	657,998	-0,357	-0,720
697,783	42,202	-0,628	-0,444
698,798	-168,663	-0,224	0,007
699,812	-147,164	-0,574	0,038
700,827	362,440	-0,221	-0,347
701,841	145,576	-0,398	-0,415
702,856	-112,110	-0,334	0,052
703,871	-200,000	-0,013	-0,406
704,885	-113,395	-0,164	-0,025
705,900	12,449	-0,325	-0,195
706,914	32,707	-0,593	-0,399
707,929	10,044	-0,537	-0,317
708,944	109,914	-0,638	-0,597
709,958	-173,980	-0,744	0,017
710,973	540,749	-0,207	-0,386
711,987	158,612	-0,593	-0,642
713,002	-42,765	-0,347	-0,137
714,017	-150,454	-0,529	-0,031
715,031	210,633	-0,287	-0,352
716,046	-200,000	-0,104	-0,455
717,060	4,969	-0,717	-0,410
718,075	700,000	-0,265	-0,688
719,089	38,801	-0,241	0,167
720,104	282,568	-0,282	0,395
721,119	102,270	-0,374	-0,340
722,133	-66,685	-0,460	0,141
723,148	52,100	-0,247	-0,183
724,162	-5,779	-0,396	-0,211
725,177	-121,345	-0,223	0,029
726,192	99,577	-0,282	0,254
727,206	187,646	-0,566	-0,659
728,221	-56,355	-0,258	-0,089
729,235	700,000	0,040	-0,120
730,250	210,442	-0,505	-0,618
731,265	576,122	-0,214	-0,407
732,279	559,900	-0,268	-0,506
733,294	162,181	-0,301	-0,328
734,308	-34,215	-0,301	-0,128
735,323	-200,000	0,057	-0,431
736,338	90,912	-0,300	0,261
737,352	-156,960	-0,435	-0,020
738,367	700,000	-0,166	-0,372
739,381	-72,754	-0,855	0,243
740,396	-6,510	-0,775	0,410
741,411	-64,116	-0,683	-0,216
742,425	203,280	-0,737	-0,888
743,440	-16,737	-0,737	-0,362
744,454	3,743	-0,343	0,194
745,469	-200,000	0,033	-0,522
746,484	60,006	-0,538	-0,413
747,498	-64,173	-0,627	0,198
748,513	-200,000	-0,002	-0,079
749,527	137,146	-0,263	-0,267
750,542	700,000	-0,312	-0,766
751,557	506,824	-0,212	-0,384
752,571	700,000	-0,177	-0,429
753,586	-200,000	-0,108	-0,635
754,600	-189,015	-0,566	-0,005
755,615	58,018	-0,265	0,202
756,629	193,494	-0,494	-0,581
757,644	253,300	-0,439	0,583
758,659	21,070	-0,490	-0,308
759,673	-200,000	-0,006	-0,735
760,688	484,097	-0,209	-0,370
761,702	-84,976	-0,402	0,097
762,717	128,040	-0,407	-0,402
763,732	-200,000	-0,030	0,446
764,746	28,174	-0,467	0,305
765,761	700,000	-0,438	-1,019
766,775	658,746	-0,196	0,394
767,790	-90,117	-0,389	-0,087
768,805	119,311	-0,306	-0,295
769,819	-72,508	-0,465	-0,133
770,834	-47,567	-0,412	0,155
771,848	178,267	-0,233	-0,265
772,863	-20,628	-0,342	-0,163
773,878	-10,804	-0,770	-0,394
774,892	-111,700	-0,353	0,055
775,907	-200,000	0,066	-0,360
776,921	656,387	-0,192	-0,384
777,936	176,372	-0,232	-0,262
778,951	-141,441	-0,279	0,022
779,965	561,675	-0,420	-0,791
780,980	-78,883	-0,291	0,076
781,994	-22,424	-0,068	-0,032
783,009	-136,188	-0,463	0,042
784,024	-83,162	-0,303	0,075
785,038	-95,375	-0,616	0,128
786,053	30,874	-0,565	0,375
787,067	-64,590	-0,409	-0,128
788,082	-200,000	-0,276	-0,976
789,097	-200,000	0,005	-0,430
790,111	156,297	-0,461	-0,494
791,126	700,000	-0,175	-0,440
792,140	-10,975	-0,544	0,278
793,155	113,264	-0,199	-0,188
794,169	-200,000	-0,028	-0,626
795,184	-82,895	-0,115	-0,029
796,199	81,184	-0,414	-0,347
797,213	-160,571	-0,687	0,028
798,228	-33,473	-0,282	0,120
799,242	700,000	-0,123	0,329
800,257	250,556	-0,219	0,289
801,272	-44,599	-0,644	-0,248
802,286	-72,393	-0,332	-0,094
803,301	-1,090	-0,366	-0,200
804,315	-171,110	0,289	0,007
805,330	-200,000	-0,017	-0,436
806,345	700,000	-0,230	-0,520
807,359	-133,906	-0,769	0,073
808,374	-19,684	-0,538	0,257
809,388	-42,172	-0,467	-0,184
810,403	105,079	-0,243	-0,222
811,418	78,042	-0,319	0,264
812,432	-200,000	-0,035	-0,520
813,447	245,670	-0,281	0,367
814,461	-61,760	-0,768	-0,248
815,476	-63,906	-0,360	0,113
816,491	-154,397	-0,587	-0,030
817,505	-200,000	-0,136	-0,574
818,520	700,000	-0,183	-0,376
819,534	-81,705	-0,403	0,102
820,549	7,631	-0,647	-0,374
821,564	-200,000	-0,140	-0,837
822,578	-140,345	-0,234	0,019
823,593	20,644	-0,201	0,125
824,607	-182,207	-0,165	0,002
825,622	-22,383	-0,225	-0,105
826,637	78,012	-0,166	-0,137
827,651	-200,000	0,020	0,298
828,666	-47,246	-0,653	-0,245
829,680	-61,956	-0,462	-0,149
830,695	73,920	-0,385	0,313
831,709	390,718	-0,083	0,133
832,724	134,394	-0,216	-0,217
833,739	-200,000	0,014	0,766
834,753	700,000	-0,186	-0,503
835,768	-60,663	-0,313	0,102
836,782	-100,186	-0,366	-0,070
837,797	48,887	0,024	0,018
838,812	-200,000	0,110	-0,617
839,826	-0,357	-0,591	0,324
840,841	559,203	-0,084	-0,157
841,855	-76,206	-0,151	-0,041
842,870	-23,055	-0,327	0,152
843,885	686,000	-0,182	-0,368
844,899	-11,761	-0,352	-0,178
845,914	165,758	-0,195	0,214
846,928	12,997	-0,372	0,222
847,943	-102,763	-0,369	0,067
848,958	5,199	-0,402	-0,229
849,972	52,003	-0,276	0,203
850,987	-5,773	-0,249	-0,131
852,001	58,764	-0,205	0,155
853,016	-121,614	-0,459	-0,058
854,031	700,000	0,053	0,140
855,045	-200,000	-0,001	0,075
856,060	-69,418	-0,596	0,175
857,074	245,763	-0,149	-0,194
858,089	-19,070	-0,344	0,165
859,104	700,000	0,087	-0,215
860,118	700,000	-0,069	-0,179
861,133	227,434	-0,247	-0,311
862,147	-107,411	-0,443	-0,074
863,162	700,000	-0,184	-0,406
864,177	-200,000	-0,125	-0,482
865,191	-200,000	0,087	-0,353
866,206	700,000	-0,135	-0,322
867,220	700,000	-0,058	0,162
868,235	-8,155	0,242	0,126
869,250	-200,000	-0,047	-0,310
870,264	106,746	-0,375	0,344
871,279	-80,199	-0,544	0,140
872,293	-176,322	-0,156	-0,003
873,308	112,209	-0,251	-0,234
874,322	-200,000	0,077	-0,466
875,337	237,840	-0,341	-0,437
876,352	117,936	-0,504	-0,479
877,366	700,000	0,240	-0,674
878,381	635,344	-0,202	-0,397
879,395	142,964	0,192	-0,197
880,410	185,521	-0,216	-0,248
881,425	-41,089	-0,549	-0,218
882,439	-0,840	-0,547	-0,298
883,454	299,324	-0,482	-0,686
884,468	24,197	-0,319	-0,203
885,483	148,289	-0,205	-0,214
886,498	-80,358	-0,421	0,108
887,512	700,000	-0,170	0,398
888,527	-200,000	0,085	-0,340
889,541	286,321	0,211	-0,295
890,556	-144,645	-0,096	0,007
891,571	14,406	-0,393	0,236
892,585	11,649	-0,458	-0,270
893,600	462,718	-0,224	-0,387
894,614	287,997	-0,199	-0,278
895,629	19,190	0,252	0,155
896,644	-78,995	-0,593	-0,154
897,658	-186,918	-0,594	-0,006
898,673	-200,000	-0,111	0,477
899,687	700,000	-0,111	-0,234
900,702	-66,094	-0,403	0,123
901,717	222,552	-0,248	0,308
902,731	169,214	-0,203	-0,224
903,746	2,194	-0,199	0,111
904,760	-200,000	0,012	0,067
905,775	-116,946	-0,279	-0,039
906,790	-125,386	-0,406	-0,047
907,804	334,246	-0,368	-0,550
908,819	308,974	-0,294	0,424
909,833	364,734	-0,185	-0,287
910,848	-200,000	0,098	-0,337
911,862	298,712	-0,199	-0,282
912,877	-114,461	-0,246	0,036
913,892	-108,922	-0,322	-0,052
914,906	97,401	-0,118	-0,104
915,921	-200,000	-0,044	-0,548
916,935	55,562	-0,260	-0,194
917,950	-119,194	-0,821	-0,109
918,965	-0,413	-0,296	-0,162
919,979	250,593	-0,265	-0,347
920,994	-116,102	-0,630	-0,089
922,008	700,000	-0,189	-0,385
923,023	-200,000	-0,010	-0,252
924,038	61,039	-0,115	0,088
925,052	-91,309	-0,074	-0,016
926,067	26,269	-0,261	-0,167
927,081	-85,187	-0,310	-0,074
928,096	-115,595	0,103	-0,015
929,111	-200,000	-0,058	0,295
930,125	-129,284	-0,443	-0,047
931,140	297,377	-0,459	-0,650
932,154	-128,478	-0,661	0,071
933,169	395,483	-0,066	0,107
934,184	-80,677	0,425	-0,108
935,198	-77,654	-0,355	-0,094
936,213	-69,753	-0,234	-0,068
937,227	250,771	-0,172	-0,225
938,242	375,853	-0,156	-0,245
939,257	-3,895	-0,314	0,167
940,271	555,561	-0,230	0,427
941,286	35,778	-0,291	-0,197
942,300	-63,183	-0,432	-0,136
943,315	149,287	-0,297	-0,309
944,330	-28,642	-0,316	-0,140
945,344	-170,677	-0,446	-0,012
946,359	-31,999	-0,245	0,105
947,373	-8,249	-0,438	-0,226
948,388	-74,598	-0,552	0,152
949,402	-75,624	-0,481	-0,130
950,417	-200,000	-0,021	0,136
951,432	-133,195	-0,298	0,029
952,446	144,754	-0,373	0,383
953,461	-117,541	-0,393	0,054
954,475	-80,706	-0,601	0,152
955,490	29,411	-0,144	-0,094
956,505	111,817	-0,332	-0,308
957,519	390,906	-0,158	-0,252
958,534	700,000	-0,104	0,343
959,548	61,634	-0,254	0,194
960,563	52,433	-0,282	-0,206
961,578	243,116	-0,247	0,318
962,592	26,720	-0,180	0,116
963,607	-162,393	-0,263	0,010
964,621	38,442	-0,284	-0,194
965,636	700,000	0,147	-0,311
966,651	330,344	0,281	-0,416
967,665	-200,000	0,016	-0,316
968,680	-200,000	-0,016	-0,366
969,694	-200,000	-0,099	-0,534
970,709	-200,000	-0,079	-0,350
971,724	89,669	-0,075	-0,064
972,738	189,354	0,201	-0,232
973,753	-16,776	0,323	-0,156
974,767	700,000	-0,186	0,388
975,782	-200,000	-0,069	-0,262
976,797	700,000	0,132	-0,358
977,811	-72,903	0,350	0,098
978,826	4,339	0,214	0,120
979,840	534,068	-0,115	-0,209
980,855	-200,000	0,007	0,072
981,870	700,000	-0,120	-0,314
982,884	-106,978	-0,265	0,045
983,899	-200,000	-0,122	-0,460
984,913	469,397	0,178	0,308
985,928	-122,328	0,139	0,017
986,942	93,515	-0,085	0,074
987,957	-200,000	-0,056	0,371
988,972	-27,501	-0,239	-0,106
989,986	157,882	-0,233	-0,247
991,001	383,597	-0,134	-0,212
992,015	-121,849	-0,425	-0,053
993,030	-130,889	-0,347	-0,035
994,045	-43,733	-0,190	0,073
995,059	700,000	0,227	-0,671
996,074	-200,000	-0,018	-0,172
997,088	-200,000	-0,008	-0,247
998,103	-200,000	0,124	-1,168
999,118	130,349	-0,382	-0,375
1000,132	266,159	-0,156	0,209
1001,147	-200,000	-0,126	-0,463
1002,161	293,324	-0,275	-0,385
1003,176	164,965	0,216	-0,234
1004,191	-165,819	-0,436	-0,014
1005,205	-2,258	-0,193	-0,103
1006,220	110,253	-0,330	0,304
1007,234	-111,311	-0,631	-0,098
1008,249	42,634	-0,244	-0,170
1009,264	-200,000	-0,000	0,174
1010,278	-60,881	-0,303	-0,098
1011,293	-8,461	-0,398	-0,204
1012,307	368,094	-0,211	-0,328
1013,322	339,668	-0,252	-0,378
1014,337	82,606	-0,387	0,321
1015,351	-2,322	-0,273	-0,146
1016,366	10,394	-0,172	-0,100
1017,380	214,597	0,399	-0,485
1018,395	-200,000	0,082	0,385
1019,410	151,201	-0,294	0,307
1020,424	209,382	-0,162	0,194
1021,439	-113,899	-0,331	-0,049
1022,453	686,158	-0,228	-0,458
1023,468	-62,230	-0,283	0,090
1024,483	-32,925	-0,497	-0,210
1025,497	3,553	-0,641	0,356
1026,512	15,585	-0,252	-0,151
1027,526	-127,279	-0,248	0,027
1028,541	430,937	-0,190	0,315
1029,555	-200,000	-0,076	-0,320
1030,570	142,888	-0,241	0,245
1031,585	542,176	-0,226	0,412
1032,599	449,851	-0,160	-0,270
1033,614	-19,927	-0,439	0,206
1034,628	-200,000	-0,000	0,066
1035,643	-200,000	0,061	-0,284
1036,658	60,826	-0,223	-0,169
1037,672	700,000	-0,254	-0,609
1038,687	104,105	-0,090	0,081
1039,701	-200,000	0,019	0,108
1040,716	700,000	-0,109	0,260
1041,731	132,800	-0,416	0,410
1042,745	-175,909	-0,269	0,005
1043,760	56,968	-0,271	0,201
1044,774	700,000	-0,132	0,362
1045,789	199,528	-0,239	-0,280
1046,804	-7,334	-0,399	0,206
1047,818	-101,818	-0,525	0,096
1048,833	120,593	-0,132	0,125
1049,847	427,689	-0,048	-0,080
1050,862	561,312	-0,056	-0,104
1051,877	-200,000	-0,138	-0,465
1052,891	-146,454	-0,564	0,037
1053,906	371,444	-0,334	0,518
1054,920	28,360	0,090	0,058
1055,935	-200,000	0,005	-0,076
1056,950	-200,000	0,057	-0,532
1057,964	346,509	-0,046	-0,070
1058,979	-200,000	0,076	-0,267
1059,993	204,801	0,245	0,291
1061,008	136,621	-0,244	-0,244
1062,023	-112,554	-0,388	-0,058
1063,037	336,488	-0,375	0,556
1064,052	-12,730	-0,264	0,131
1065,066	-200,000	0,049	-0,507
1066,081	-37,604	0,195	-0,079
1067,095	-113,978	0,401	-0,059
1068,110	-200,000	-0,054	0,451
1069,125	-200,000	0,022	-0,699
1070,139	279,418	0,149	0,203
1071,154	106,093	0,202	-0,182
1072,168	290,674	0,169	0,235
1073,183	-84,988	0,222	0,053
1074,198	400,493	0,079	0,127
1075,212	-200,000	0,079	-0,388
1076,227	-45,136	0,333	0,126
1077,241	268,860	0,276	-0,369
1078,256	121,853	-0,192	-0,183
1079,271	-121,557	-0,114	0,014
1080,285	384,426	-0,167	0,263
1081,300	200,392	-0,111	-0,131
1082,314	348,560	-0,212	-0,320
1083,329	551,987	-0,315	-0,578
1084,344	700,000	-0,058	-0,183
1085,358	-117,959	-0,195	-0,026
1086,373	-125,120	-0,276	-0,032
1087,387	-62,627	-0,181	-0,057
1088,402	-99,045	-0,179	-0,034
1089,417	55,670	-0,075	0,055
1090,431	139,531	-0,234	-0,235
1091,446	-200,000	0,088	-0,389
1092,460	-200,000	-0,021	-0,536
1093,475	-14,285	-0,335	0,164
1094,490	317,141	-0,199	-0,287
1095,504	-200,000	-0,061	-0,354
1096,519	-200,000	0,061	0,223
1097,533	433,543	-0,190	0,315
1098,548	20,851	-0,375	-0,231
1099,563	384,649	-0,240	-0,377
1100,577	700,000	-0,153	-0,454
1101,592	-44,551	-0,159	-0,060
1102,606	-77,278	0,113	0,030
1103,621	-123,507	0,285	-0,034
1104,635	-200,000	0,009	0,058
1105,650	-21,951	-0,258	-0,119
1106,665	700,000	-0,115	-0,303
1107,679	-200,000	-0,039	-0,262
1108,694	-200,000	0,036	-0,310
1109,708	13,958	-0,027	0,016
1110,723	418,735	0,132	-0,215
1111,738	30,427	-0,125	-0,081
1112,752	-106,634	-0,253	-0,042
1113,767	89,115	0,201	0,170
1114,781	279,106	-0,196	0,266
1115,796	-200,000	0,077	0,379
1116,811	-70,077	0,282	-0,081
1117,825	149,121	-0,305	-0,314
1118,840	53,047	-0,353	-0,257
1119,854	700,000	-0,121	-0,301
1120,869	-74,530	-0,292	0,079
1121,884	-135,776	-0,139	-0,012
1122,898	-200,000	0,031	-0,108
1123,913	431,358	-0,317	-0,524
1124,927	509,084	-0,180	0,319
1125,942	-47,218	-0,100	0,037
1126,957	69,611	-0,330	0,258
1127,971	-8,284	0,038	0,019
1128,986	-200,000	-0,021	-0,304
1130,000	616,234	-0,202	0,386
1131,015	700,000	-0,110	-0,246
1132,030	700,000	0,031	0,091
1133,044	700,000	0,083	-0,240
1134,059	143,297	-0,228	0,231
1135,073	205,664	-0,274	-0,324
1136,088	-200,000	-0,057	-0,356
1137,103	-200,000	0,082	-0,308
1138,117	-200,000	-0,018	0,226
1139,132	-200,000	0,033	0,130
1140,146	-200,000	-0,012	-0,104
1141,161	-67,333	-0,256	-0,076
1142,176	-75,563	-0,423	-0,113
1143,190	-137,918	-0,501	-0,042
1144,205	-73,297	-0,422	0,116
1145,219	419,909	-0,270	-0,440
1146,234	-55,656	-0,186	0,063
1147,248	-132,718	-0,387	0,037
1148,263	-85,239	-0,469	0,110
1149,278	-148,322	-0,155	-0,010
1150,292	700,000	0,085	-0,283
1151,307	-200,000	-0,019	0,311
1152,321	6,657	-0,306	-0,172
1153,336	700,000	-0,072	0,194
1154,351	4,662	-0,233	0,129
1155,365	31,055	-0,327	0,212
1156,380	-112,555	-0,393	0,059
1157,394	-114,922	-0,290	0,041
1158,409	291,553	0,239	-0,331
1159,424	-200,000	0,043	-0,338
1160,438	-200,000	-0,028	-0,189
1161,453	-200,000	0,127	-0,480
1162,467	511,646	0,151	-0,268
1163,482	54,694	0,316	-0,231
1164,497	-6,747	0,399	-0,205
1165,511	-200,000	0,004	0,041
1166,526	-108,963	-0,213	-0,034
1167,540	-49,574	0,197	0,071
1168,555	578,288	-0,161	0,300
1169,570	-200,000	0,015	-0,466
1170,584	-200,000	0,006	0,203
1171,599	700,000	-0,095	0,294
1172,613	700,000	0,025	0,070
1173,628	-200,000	0,029	-0,360
1174,643	-10,078	-0,076	0,038
1175,657	95,262	-0,210	-0,182
1176,672	-200,000	0,001	-0,059
1177,686	-148,373	0,335	-0,021
1178,701	-82,304	0,375	0,092
1179,716	58,832	-0,086	-0,064
1180,730	700,000	-0,214	-0,550
1181,745	72,359	-0,127	-0,101
1182,759	-120,325	0,029	0,004
1183,774	571,639	0,048	-0,089
1184,788	-200,000	-0,013	-0,198
1185,803	-200,000	-0,102	0,622
1186,818	657,772	0,128	-0,251
1187,832	700,000	-0,282	-0,891
1188,847	123,646	-0,135	-0,128
1189,861	-200,000	0,135	-0,465
1190,876	-175,032	-0,300	-0,006
1191,891	-72,257	-0,522	0,146
1192,905	298,148	-0,374	-0,522
1193,920	-200,000	0,022	-0,168
1194,934	514,932	-0,144	0,255
1195,949	-3,235	-0,301	0,158
1196,964	700,000	0,097	-0,238
1197,978	700,000	0,086	-0,190
1198,993	580,077	0,063	0,117
1200,007	-62,469	-0,133	-0,042
1201,022	-200,000	-0,004	0,025
1202,037	657,697	0,175	0,341
1203,051	60,924	-0,116	-0,087
1204,066	537,249	0,124	-0,223
1205,080	-200,000	-0,013	0,392
1206,095	-200,000	0,016	-0,379
1207,110	700,000	0,042	0,117
1208,124	61,594	0,257	0,193
1209,139	-200,000	-0,148	-0,506
1210,153	473,845	-0,330	-0,565
1211,168	422,536	-0,314	0,512
1212,183	-133,267	-0,265	-0,025
1213,197	700,000	-0,162	0,328
1214,212	99,283	-0,415	0,363
1215,226	-107,896	-0,384	0,063
1216,241	-92,772	-0,435	0,091
1217,256	-62,544	-0,382	-0,119
1218,270	-200,000	-0,134	-0,546
1219,285	-200,000	0,010	-0,371
1220,299	221,536	0,259	0,315
1221,314	-200,000	-0,019	0,075
1222,328	-200,000	-0,025	-0,332
1223,343	700,000	0,088	0,211
1224,358	-200,000	-0,031	0,375
1225,372	-200,000	0,035	0,234
1226,387	664,707	-0,144	-0,282
1227,401	462,989	0,083	-0,140
1228,416	244,272	-0,174	-0,221
1229,431	700,000	-0,026	0,061
1230,445	-200,000	0,018	0,189
1231,460	-200,000	-0,117	-0,520
1232,474	700,000	0,046	-0,114
1233,489	-200,000	0,088	-0,397
1234,504	135,637	0,145	-0,142
1235,518	700,000	-0,120	0,323
1236,533	58,823	-0,257	0,190
1237,547	15,568	-0,295	-0,175
1238,562	-200,000	-0,157	0,606
1239,577	-200,000	-0,032	0,235
1240,591	-30,478	-0,472	0,201
1241,606	66,635	-0,468	-0,359
1242,620	70,597	-0,340	0,265
1243,635	-126,140	-0,218	-0,024
1244,650	-126,301	-0,099	0,011
1245,664	273,664	-0,189	0,253
1246,679	569,017	-0,121	-0,223
1247,693	700,000	-0,087	0,194
1248,708	-200,000	-0,066	-0,263
1249,723	700,000	0,104	0,313
1250,737	700,000	0,074	-0,194
1251,752	-6,106	-0,470	-0,241
1252,766	0,321	-0,478	0,257
1253,781	130,462	-0,197	0,191
1254,796	257,945	-0,337	-0,438
1255,810	-156,372	-0,275	0,013
1256,825	700,000	-0,095	-0,224
1257,839	-54,406	-0,115	-0,039
1258,854	-200,000	0,107	0,432
1259,868	700,000	0,266	-0,560
1260,883	700,000	-0,091	0,246
1261,898	-51,195	-0,686	-0,241
1262,912	-37,231	-0,258	0,103
1263,927	700,000	0,137	0,392
1264,941	88,464	0,131	0,109
1265,956	328,668	-0,039	0,057
1266,971	-200,000	-0,080	0,292
1267,985	700,000	-0,060	-0,139
1269,000	-140,321	-0,361	-0,028
1270,014	537,286	-0,153	0,274
1271,029	-200,000	-0,012	0,404
1272,044	700,000	0,148	-0,316
1273,058	669,992	0,205	0,401
1274,073	-200,000	0,056	0,536
1275,087	-200,000	0,057	-0,400
1276,102	68,659	-0,209	0,161
1277,117	-17,832	-0,418	-0,197
1278,131	-84,276	-0,570	0,135
1279,146	700,000	-0,124	-0,306
1280,160	-54,413	0,376	-0,128
1281,175	-178,993	-0,261	-0,004
1282,190	-132,434	-0,425	-0,041
1283,204	-200,000	0,060	-0,327
1284,219	540,398	0,093	0,168
1285,233	700,000	0,081	0,165
1286,248	29,034	0,264	-0,168
1287,263	-200,000	-0,020	-0,134
1288,277	-200,000	-0,124	-0,483
1289,292	-200,000	0,045	-0,469
1290,306	114,041	-0,057	-0,052
1291,321	-200,000	0,070	-0,307
1292,336	-200,000	0,111	-0,398
1293,350	-200,000	-0,104	-0,369
1294,365	-83,628	0,136	0,032
1295,379	-200,000	0,086	-0,382
1296,394	13,642	-0,206	-0,120
1297,409	-200,000	0,027	-0,287
1298,423	486,073	-0,167	-0,288
1299,438	-200,000	-0,041	0,352
1300,452	89,012	0,427	-0,357
1301,467	335,709	0,382	-0,559
1302,481	211,821	-0,114	-0,135
1303,496	89,656	0,040	0,034
1304,511	-200,000	0,054	0,326
1305,525	40,140	-0,068	-0,046
1306,540	-200,000	-0,049	-0,550
1307,554	-200,000	0,089	-0,301
1308,569	700,000	-0,134	0,326
1309,584	211,055	-0,070	0,083
1310,598	-112,919	-0,207	0,031
1311,613	57,092	0,137	0,100
1312,627	49,375	0,266	-0,188
1313,642	15,511	0,101	-0,060
1314,657	-65,176	-0,211	0,064
1315,671	-28,746	0,264	0,114
1316,686	-200,000	-0,134	0,464
1317,700	-89,336	-0,305	-0,067
1318,715	219,023	-0,077	-0,092
1319,730	81,085	-0,299	0,242
1320,744	700,000	-0,071	-0,157
1321,759	1,328	0,234	0,126
1322,773	-110,246	-0,080	-0,012
1323,788	-150,928	0,120	0,007
1324,803	-200,000	-0,118	-0,411
1325,817	-200,000	-0,012	-0,916
1326,832	27,847	-0,398	-0,251
1327,846	47,527	-0,212	0,149
1328,861	14,295	-0,032	-0,019
1329,876	293,337	-0,095	0,131
1330,890	451,263	-0,038	-0,063
1331,905	-200,000	0,050	-0,717
1332,919	627,665	-0,292	-0,556
1333,934	-200,000	-0,028	0,148
1334,949	1,240	0,139	-0,075
1335,963	433,087	0,194	0,318
1336,978	325,396	0,081	0,116
1337,992	51,538	0,495	-0,352
1339,007	-200,000	0,050	0,215
1340,021	246,429	-0,137	0,174
1341,036	478,974	0,199	0,339
1342,051	-117,373	-0,137	-0,019
1343,065	700,000	-0,234	0,587
1344,080	4,822	-0,235	0,129
1345,094	-200,000	-0,031	-0,264
1346,109	0,721	0,062	0,033
1347,124	195,852	-0,217	-0,248
1348,138	-200,000	-0,098	-0,490
1349,153	218,243	-0,087	-0,105
1350,167	402,474	-0,240	0,380
