DTS Sentinel unit serial number:	SN409017Multiplexer serial number:	ORYXHardware model number:	OX4Software version number:	ORYX F/W v1,02 Oryx Data Collector v3.7.1.3data status	okinstallation	speulderbos2017nov21differential loss correction	single-endedforward channel	channel 1reverse channel	N/Adate	2018/01/07time	20:24:18forward acquisition time	30,00reverse acquisition time	0,00gamma	498,7988k internal	0,2785k external	0,2785temperature offset calibration	1,0000default loss term (dB/km)	0,3730temperature slope calibration	0,7000multiplexer offset coefficient	1,0000multiplexer slope coefficient	1,0000fibre end	0,00T internal ref (°C)	15,31T ext. ref 1 (°C)	3,07T ext. ref 2 (°C)	1258,77length (m)	temperature (°C)	Stokes	anti-Stokes-747,000	6,249	-0,304	-0,188
-745,985	700,000	-0,083	-0,269
-744,971	36,233	0,598	0,440
-743,956	700,000	-0,139	-0,351
-742,942	-146,047	0,175	0,013
-741,927	-200,000	-0,015	-0,531
-740,912	416,203	0,086	0,155
-739,898	302,993	0,153	-0,238
-738,883	390,004	0,066	0,114
-737,869	-20,836	-0,746	-0,381
-736,854	-40,902	-0,375	0,162
-735,839	166,988	0,233	-0,277
-734,825	700,000	0,204	0,616
-733,810	-79,157	-0,146	-0,041
-732,796	36,283	0,288	-0,212
-731,781	-90,664	-0,113	0,027
-730,766	82,413	0,263	0,238
-729,752	89,844	0,208	0,195
-728,737	-197,093	0,210	0,001
-727,723	700,000	0,092	-0,222
-726,708	65,098	0,306	-0,259
-725,694	-80,533	-0,377	-0,104
-724,679	-13,160	-0,726	0,393
-723,664	700,000	-0,136	0,307
-722,650	634,970	0,187	-0,398
-721,635	34,430	-0,422	-0,307
-720,621	335,737	-0,082	-0,133
-719,606	334,037	0,149	-0,241
-718,591	58,040	-0,076	0,062
-717,577	700,000	-0,080	-0,187
-716,562	-200,000	0,133	-0,553
-715,548	-200,000	0,697	-0,002
-714,533	700,000	0,150	-0,408
-713,518	-174,939	-0,686	-0,016
-712,504	382,010	-0,045	-0,078
-711,489	9,511	-0,449	-0,284
-710,475	199,136	0,060	0,077
-709,460	25,309	0,444	0,308
-708,445	291,862	0,361	0,550
-707,431	-124,849	0,594	0,076
-706,416	39,283	-0,498	-0,372
-705,402	-200,000	0,154	-0,838
-704,387	172,829	-0,157	-0,190
-703,372	-109,781	0,274	0,048
-702,358	-200,000	-0,008	0,181
-701,343	-159,651	0,041	-0,002
-700,329	22,434	0,407	-0,277
-699,314	61,928	-0,310	0,257
-698,299	700,000	-0,213	0,476
-697,285	334,929	-0,097	-0,158
-696,270	508,453	-0,328	-0,639
-695,256	1,129	-0,088	0,052
-694,241	-200,000	0,103	0,382
-693,226	-200,000	0,039	-0,234
-692,212	-98,531	-0,367	-0,078
-691,197	159,548	0,192	0,224
-690,183	230,868	-0,351	-0,481
-689,168	-200,000	-0,056	0,355
-688,154	47,286	-0,138	0,107
-687,139	700,000	0,150	0,422
-686,124	-31,564	-0,307	0,143
-685,110	479,714	0,058	-0,110
-684,095	700,000	0,140	0,376
-683,081	-6,630	-0,433	-0,245
-682,066	210,655	-0,249	0,326
-681,051	-56,919	0,301	-0,110
-680,037	-200,000	0,018	-0,316
-679,022	-200,000	0,002	-0,192
-678,008	-168,853	0,248	-0,008
-676,993	98,636	-0,435	-0,418
-675,978	-200,000	0,139	0,734
-674,964	-200,000	0,017	-0,398
-673,949	-200,000	-0,076	-0,422
-672,935	205,972	-0,343	-0,446
-671,920	-89,824	0,525	0,127
-670,905	700,000	-0,149	-0,389
-669,891	678,092	-0,304	-0,662
-668,876	-152,376	-0,326	0,019
-667,862	-200,000	0,025	-0,123
-666,847	-141,799	0,741	-0,061
-665,832	190,434	0,071	-0,089
-664,818	-59,728	0,086	0,031
-663,803	-107,616	-0,670	0,121
-662,789	106,489	0,345	-0,341
-661,774	119,570	0,065	-0,067
-660,759	687,900	-0,051	-0,111
-659,745	700,000	0,134	-0,420
-658,730	463,967	-0,196	0,366
-657,716	402,579	-0,142	-0,249
-656,701	-132,993	-0,237	-0,025
-655,686	623,254	0,036	0,076
-654,672	463,018	0,245	0,457
-653,657	-62,681	0,025	-0,008
-652,643	265,367	0,125	0,182
-651,628	38,110	-0,523	-0,387
-650,613	-23,320	0,176	0,088
-649,599	7,383	-0,155	-0,096
-648,584	200,791	-0,263	-0,338
-647,570	27,679	0,410	-0,287
-646,555	700,000	0,028	-0,084
-645,541	-70,116	-0,727	0,229
-644,526	333,581	0,170	-0,275
-643,511	700,000	0,269	-0,738
-642,497	334,404	-0,245	-0,397
-641,482	-107,566	-0,055	0,010
-640,468	-200,000	-0,092	-0,344
-639,453	-57,274	-0,341	0,124
-638,438	-117,551	0,453	0,068
-637,424	249,029	-0,193	0,273
-636,409	-200,000	-0,031	0,176
-635,395	91,803	0,326	0,305
-634,380	-46,560	-0,333	0,136
-633,365	148,417	-0,167	0,188
-632,351	-98,587	0,265	-0,056
-631,336	10,225	-0,444	0,281
-630,322	568,497	0,305	0,620
-629,307	-119,674	0,333	0,047
-628,292	700,000	-0,076	-0,269
-627,278	29,007	-0,068	0,048
-626,263	221,807	0,502	-0,674
-625,249	-83,555	0,126	0,033
-624,234	72,211	0,042	0,036
-623,219	36,144	-0,155	0,114
-622,205	-112,747	0,144	0,024
-621,190	111,667	0,518	-0,521
-620,176	700,000	-0,018	-0,064
-619,161	-26,581	-0,047	0,023
-618,146	-20,861	-0,260	0,132
-617,132	378,812	0,140	-0,239
-616,117	-200,000	0,037	-0,400
-615,103	125,862	-0,419	-0,440
-614,088	-47,613	0,608	-0,245
-613,073	-132,086	-0,348	0,037
-612,059	47,806	-0,087	-0,067
-611,044	700,000	-0,110	-0,321
-610,030	-98,568	0,244	0,051
-609,015	134,985	-0,272	0,294
-608,001	-180,347	-0,129	-0,002
-606,986	64,006	0,391	-0,327
-605,971	66,135	0,336	0,283
-604,957	26,017	-0,546	0,378
-603,942	36,293	-0,154	-0,113
-602,928	-200,000	-0,063	-0,468
-601,913	121,320	0,088	0,091
-600,898	-110,263	0,320	0,055
-599,884	700,000	-0,252	0,582
-598,869	177,642	0,229	-0,277
-597,855	-73,252	0,396	-0,120
-596,840	-200,000	-0,091	-0,446
-595,825	-200,000	0,010	-0,417
-594,811	7,580	-0,156	-0,097
-593,796	41,337	0,094	-0,071
-592,782	105,989	0,103	-0,101
-591,767	-93,448	-0,554	-0,127
-590,752	-200,000	0,149	0,705
-589,738	700,000	-0,098	-0,255
-588,723	-200,000	0,038	0,837
-587,709	92,174	-0,198	-0,185
-586,694	700,000	-0,236	0,533
-585,679	-200,000	-0,024	-0,283
-584,665	606,678	-0,052	-0,109
-583,650	202,559	-0,170	0,219
-582,636	-200,000	0,002	-0,050
-581,621	-92,678	-0,249	0,058
-580,606	-200,000	0,028	-0,312
-579,592	7,944	0,034	0,021
-578,577	140,982	-0,148	-0,163
-577,563	184,386	-0,421	0,519
-576,548	-142,801	-0,257	0,020
-575,533	700,000	-0,044	0,141
-574,519	-99,978	0,291	0,060
-573,504	700,000	0,127	0,453
-572,490	-190,363	-0,535	-0,005
-571,475	-28,066	-0,105	0,050
-570,461	34,307	-0,217	-0,157
-569,446	-11,894	0,056	0,031
-568,431	34,351	0,168	0,121
-567,417	71,763	0,114	-0,099
-566,402	700,000	0,137	0,396
-565,388	-200,000	0,023	0,105
-564,373	-200,000	-0,001	0,079
-563,358	700,000	0,091	-0,223
-562,344	-26,173	0,281	-0,137
-561,329	105,403	0,173	0,169
-560,315	61,200	-0,111	0,091
-559,300	-62,156	-0,274	0,094
-558,285	-40,127	-0,207	-0,089
-557,271	-136,659	0,125	-0,012
-556,256	700,000	-0,051	-0,156
-555,242	167,343	0,328	-0,387
-554,227	33,741	0,304	-0,219
-553,212	-200,000	-0,014	0,136
-552,198	-1,563	-0,669	0,390
-551,183	700,000	-0,202	-0,514
-550,169	-24,995	0,421	-0,207
-549,154	-200,000	-0,094	0,349
-548,139	22,700	-0,429	0,291
-547,125	438,562	0,181	0,329
-546,110	-78,493	-0,367	-0,104
-545,096	6,271	0,505	-0,310
-544,081	-200,000	0,043	-0,192
-543,066	659,350	-0,093	0,200
-542,052	349,547	0,098	-0,161
-541,037	-200,000	0,067	0,312
-540,023	700,000	-0,138	-0,345
-539,008	700,000	0,219	-0,485
-537,993	-96,660	0,229	0,050
-536,979	700,000	0,158	0,431
-535,964	-200,000	0,085	0,553
-534,950	182,397	-0,292	-0,357
-533,935	700,000	-0,080	-0,288
-532,920	307,346	0,191	0,296
-531,906	-200,000	-0,070	0,409
-530,891	-158,950	-0,299	-0,014
-529,877	404,922	0,213	-0,373
-528,862	362,819	0,292	-0,488
-527,848	115,633	-0,039	-0,040
-526,833	600,124	0,060	-0,124
-525,818	54,556	0,125	-0,100
-524,804	-26,276	-0,377	0,183
-523,789	476,527	0,069	0,129
-522,775	103,819	-0,209	-0,204
-521,760	42,663	-0,404	-0,305
-520,745	700,000	-0,041	0,143
-519,731	287,047	0,195	-0,293
-518,716	142,360	0,110	-0,121
-517,702	360,934	-0,021	0,036
-516,687	395,206	0,265	0,459
-515,672	-200,000	0,063	0,403
-514,658	253,053	0,378	0,536
-513,643	-145,376	0,293	-0,022
-512,629	86,620	-0,369	0,337
-511,614	227,226	-0,266	0,360
-510,599	83,462	0,018	-0,016
-509,585	381,567	-0,305	0,521
-508,570	-200,000	0,085	0,504
-507,556	-200,000	-0,117	0,862
-506,541	68,962	-0,582	0,495
-505,526	-33,315	-0,412	-0,188
-504,512	-200,000	0,046	-0,463
-503,497	700,000	-0,117	-0,311
-502,483	-94,103	-0,301	-0,068
-501,468	-200,000	-0,143	0,566
-500,453	644,200	-0,185	-0,392
-499,439	-159,774	0,203	-0,009
-498,424	449,087	0,125	-0,228
-497,410	-4,930	0,122	-0,069
-496,395	556,345	-0,087	-0,175
-495,380	21,711	-0,482	-0,325
-494,366	-68,753	0,245	-0,078
-493,351	-14,830	0,512	0,271
-492,337	-154,930	0,266	-0,014
-491,322	316,461	-0,237	-0,372
-490,308	-200,000	0,094	-0,390
-489,293	-54,815	0,309	0,115
-488,278	-95,514	0,114	-0,025
-487,264	174,776	-0,155	-0,186
-486,249	-200,000	-0,061	0,301
-485,235	75,936	0,060	-0,052
-484,220	598,870	-0,129	0,267
-483,205	102,816	-0,433	0,419
-482,191	-60,926	0,165	0,057
-481,176	-36,967	-0,425	0,188
-480,162	-139,134	-0,177	-0,016
-479,147	696,417	-0,069	0,151
-478,132	132,760	0,147	-0,157
-477,118	-59,101	0,171	0,061
-476,103	-47,689	0,347	0,139
-475,089	-8,428	0,194	-0,108
-474,074	533,365	-0,221	0,436
-473,059	-54,476	0,338	-0,126
-472,045	237,439	0,189	-0,260
-471,030	-53,552	0,113	0,042
-470,016	319,335	0,089	0,140
-469,001	-200,000	-0,022	-0,103
-467,986	700,000	-0,122	0,394
-466,972	-200,000	0,042	0,572
-465,957	700,000	0,014	0,032
-464,943	-21,701	-0,315	-0,158
-463,928	700,000	-0,116	-0,259
-462,913	-200,000	-0,050	0,265
-461,899	125,324	-0,101	-0,105
-460,884	-91,957	-0,706	-0,164
-459,870	-200,000	-0,027	-0,188
-458,855	279,405	0,169	0,250
-457,840	406,859	-0,119	-0,209
-456,826	86,281	0,170	0,155
-455,811	-14,956	-0,230	0,122
-454,797	440,062	0,141	-0,256
-453,782	-13,042	0,135	-0,072
-452,768	-60,219	-0,310	0,109
-451,753	-118,629	-0,401	-0,058
-450,738	44,924	0,272	0,207
-449,724	24,423	-0,195	-0,133
-448,709	77,827	-0,158	-0,139
-447,695	700,000	-0,187	0,529
-446,680	505,838	-0,112	-0,214
-445,665	134,597	-0,097	-0,104
-444,651	-177,874	-0,228	-0,004
-443,636	-84,091	0,208	-0,054
-442,622	112,420	-0,165	-0,165
-441,607	-97,326	0,490	0,105
-440,592	-34,007	-0,320	0,145
-439,578	-148,170	-0,045	0,003
-438,563	97,081	0,179	-0,170
-437,549	-101,632	0,114	-0,023
-436,534	37,858	-0,443	-0,325
-435,519	77,760	-0,345	0,304
-434,505	74,651	-0,404	-0,351
-433,490	700,000	0,020	-0,067
-432,476	-200,000	-0,026	-0,219
-431,461	349,654	-0,021	-0,035
-430,446	230,728	-0,514	-0,696
-429,432	-25,488	-0,110	0,054
-428,417	-8,090	0,602	-0,334
-427,403	-125,446	-0,430	0,053
-426,388	-37,619	-0,256	-0,112
-425,373	-200,000	0,035	0,756
-424,359	700,000	0,170	0,434
-423,344	234,969	-0,302	0,412
-422,330	700,000	0,145	0,402
-421,315	700,000	-0,020	0,070
-420,300	-200,000	0,169	0,718
-419,286	51,263	-0,422	-0,331
-418,271	-200,000	0,014	-0,165
-417,257	12,679	0,079	0,051
-416,242	125,013	-0,045	0,046
-415,228	-200,000	0,047	0,175
-414,213	700,000	0,167	0,494
-413,198	-57,607	0,329	0,119
-412,184	-51,848	-0,535	0,204
-411,169	194,123	-0,337	0,422
-410,155	96,894	0,103	0,098
-409,140	652,651	0,038	-0,080
-408,125	-130,911	-0,168	0,018
-407,111	700,000	-0,248	0,550
-406,096	581,895	0,231	-0,470
-405,082	-148,257	0,393	-0,026
-404,067	-76,298	0,224	0,065
-403,052	232,057	-0,194	-0,263
-402,038	9,784	0,446	-0,278
-401,023	143,614	0,364	0,400
-400,009	248,361	0,142	-0,199
-398,994	239,224	-0,157	-0,216
-397,979	267,992	-0,250	-0,363
-396,965	700,000	-0,121	-0,267
-395,950	262,598	-0,239	-0,342
-394,936	-200,000	-0,033	-0,506
-393,921	-132,061	0,257	0,027
-392,906	-200,000	0,039	-0,190
-391,892	-89,843	-0,837	0,200
-390,877	185,653	0,228	0,280
-389,863	-58,233	-0,293	0,105
-388,848	88,279	0,029	-0,026
-387,833	48,416	0,183	-0,141
-386,819	-104,696	0,551	0,104
-385,804	17,170	-0,311	-0,203
-384,790	-59,739	-0,200	0,070
-383,775	96,653	-0,458	0,433
-382,760	700,000	-0,037	-0,093
-381,746	94,091	0,283	0,265
-380,731	194,462	-0,284	0,355
-379,717	700,000	0,249	0,633
-378,702	-42,406	0,201	-0,084
-377,687	126,627	-0,151	0,157
-376,673	499,397	-0,143	0,273
-375,658	522,788	-0,101	0,197
-374,644	-200,000	-0,463	0,002
-373,629	-26,580	0,680	0,327
-372,615	367,185	0,080	-0,133
-371,600	-59,614	0,103	0,036
-370,585	273,406	0,244	0,356
-369,571	-127,185	0,373	-0,044
-368,556	616,063	0,028	-0,058
-367,542	700,000	0,049	-0,133
-366,527	-17,035	0,301	-0,156
-365,512	-200,000	0,025	-0,138
-364,498	-152,675	-0,266	-0,015
-363,483	249,431	0,259	-0,363
-362,469	-200,000	0,030	-0,164
-361,454	122,255	0,156	-0,161
-360,439	-60,724	0,185	-0,064
-359,425	-200,000	0,012	-0,163
-358,410	-200,000	-0,067	-0,377
-357,396	-68,005	-0,173	-0,055
-356,381	191,898	0,301	0,374
-355,366	-200,000	0,057	0,232
-354,352	93,764	-0,412	-0,385
-353,337	700,000	0,056	0,181
-352,323	77,545	0,296	0,260
-351,308	-135,891	-0,217	0,021
-350,293	-200,000	-0,023	-0,248
-349,279	-200,000	0,017	0,129
-348,264	116,431	-0,455	0,459
-347,250	401,745	0,193	0,334
-346,235	-200,000	-0,058	0,468
-345,220	-200,000	0,035	0,270
-344,206	-104,394	0,164	0,031
-343,191	159,284	0,161	-0,185
-342,177	137,467	-0,139	-0,150
-341,162	-11,855	0,732	-0,394
-340,147	223,731	0,102	-0,135
-339,133	176,137	0,239	-0,286
-338,118	-200,000	-0,061	0,288
-337,104	-88,349	-0,303	-0,074
-336,089	-200,000	-0,036	-0,559
-335,075	700,000	-0,263	-0,577
-334,060	-184,769	-0,332	-0,004
-333,045	-64,054	0,395	-0,132
-332,031	483,114	0,143	0,268
-331,016	-200,000	-0,045	-0,397
-330,002	700,000	-0,122	-0,363
-328,987	-100,107	0,244	0,050
-327,972	-37,270	0,392	0,172
-326,958	-143,818	-0,438	0,034
-325,943	700,000	-0,102	0,323
-324,929	-100,801	0,299	-0,060
-323,914	435,411	0,329	-0,590
-322,899	276,203	0,151	-0,221
-321,885	576,865	-0,217	-0,438
-320,870	-2,304	0,273	0,157
-319,856	1,656	-0,453	0,268
-318,841	38,346	0,461	0,337
-317,826	-200,000	0,004	-0,160
-316,812	-74,836	0,358	0,105
-315,797	-34,103	-0,250	-0,112
-314,783	-1,220	0,427	0,247
-313,768	-200,000	0,044	-0,268
-312,753	700,000	0,148	0,330
-311,739	700,000	-0,192	0,443
-310,724	122,917	0,512	0,528
-309,710	-72,503	0,320	0,097
-308,695	241,662	0,214	-0,295
-307,680	700,000	0,145	-0,340
-306,666	113,713	-0,224	-0,224
-305,651	82,768	0,170	-0,152
-304,637	-44,146	0,094	0,039
-303,622	426,693	-0,131	-0,233
-302,607	-106,926	0,448	-0,081
-301,593	325,526	-0,144	-0,226
-300,578	-59,893	-0,613	0,215
-299,564	-12,298	-0,011	0,006
-298,549	-67,186	-0,780	-0,251
-297,535	-147,830	-0,235	0,016
-296,520	-200,000	0,218	0,877
-295,505	-200,000	0,055	-0,502
-294,491	-70,646	0,267	0,082
-293,476	-24,204	-0,078	0,038
-292,462	700,000	-0,104	-0,296
-291,447	-200,000	0,090	0,380
-290,432	-200,000	-0,007	-0,089
-289,418	-63,969	-0,176	0,059
-288,403	700,000	0,092	0,243
-287,389	169,957	0,277	0,326
-286,374	169,689	-0,141	-0,166
-285,359	-91,467	-0,520	0,121
-284,345	700,000	0,111	-0,288
-283,330	-65,684	0,266	-0,087
-282,316	700,000	-0,166	0,560
-281,301	-200,000	0,009	0,046
-280,286	678,167	0,100	-0,215
-279,272	-131,604	0,368	-0,039
-278,257	-200,000	0,087	-0,511
-277,243	-31,745	-0,247	-0,113
-276,228	57,506	-0,116	-0,093
-275,213	-200,000	-0,016	0,246
-274,199	-200,000	0,031	-0,371
-273,184	154,218	0,356	-0,402
-272,170	-89,146	0,165	0,040
-271,155	525,398	-0,080	0,156
-270,140	-200,000	-0,008	-0,243
-269,126	11,335	0,245	0,153
-268,111	-200,000	-0,042	-0,311
-267,097	581,926	-0,165	-0,333
-266,082	-140,800	0,646	0,054
-265,067	-200,000	0,043	-0,593
-264,053	-200,000	0,014	-0,433
-263,038	48,645	-0,256	0,197
-262,024	30,574	0,449	-0,315
-261,009	317,863	0,135	-0,210
-259,994	613,460	-0,083	0,172
-258,980	26,023	-0,540	0,369
-257,965	85,290	0,270	-0,243
-256,951	378,999	0,150	0,253
-255,936	9,920	-0,305	0,189
-254,922	-105,089	0,326	-0,061
-253,907	700,000	-0,053	-0,115
-252,892	66,745	0,152	0,127
-251,878	-200,000	0,030	0,235
-250,863	-39,654	-0,555	0,237
-249,849	-134,466	0,602	-0,060
-248,834	-117,054	-0,549	0,081
-247,819	-200,000	0,015	0,165
-246,805	349,129	0,137	0,222
-245,790	203,076	-0,273	-0,346
-244,776	-200,000	0,074	-0,410
-243,761	49,461	-0,221	0,171
-242,746	61,139	0,057	-0,046
-241,732	-200,000	-0,031	-0,148
-240,717	-200,000	-0,090	-0,435
-239,703	235,531	0,102	0,138
-238,688	700,000	0,122	0,422
-237,673	-40,627	0,731	0,309
-236,659	-200,000	0,027	-0,275
-235,644	-126,703	0,265	0,032
-234,630	-43,604	0,580	0,239
-233,615	324,122	-0,065	-0,101
-232,600	700,000	0,087	0,263
-231,586	16,093	0,308	0,199
-230,571	185,006	0,338	-0,411
-229,557	249,261	-0,204	0,284
-228,542	-11,503	0,361	-0,194
-227,527	569,211	-0,351	0,702
-226,513	105,391	-0,219	-0,212
-225,498	-200,000	0,106	-0,479
-224,484	-40,612	-0,238	0,101
-223,469	-200,000	-0,101	0,413
-222,454	102,597	0,215	-0,206
-221,440	700,000	0,022	-0,059
-220,425	-90,994	0,186	0,043
-219,411	-200,000	0,039	-0,325
-218,396	-200,000	-0,008	0,835
-217,382	122,600	-0,327	-0,335
-216,367	700,000	-0,055	-0,172
-215,352	325,094	-0,173	-0,272
-214,338	-105,080	0,451	-0,084
-213,323	445,622	0,194	-0,350
-212,309	-49,846	-0,292	-0,113
-211,294	134,066	-0,320	0,339
-210,279	40,147	-0,190	-0,140
-209,265	-200,000	0,106	-0,668
-208,250	-54,756	-0,300	0,110
-207,236	473,055	-0,079	-0,147
-206,221	-6,274	0,459	0,256
-205,206	-46,636	-0,610	0,244
-204,192	-200,000	-0,038	-0,139
-203,177	122,168	-0,174	0,178
-202,163	276,483	0,116	0,169
-201,148	-200,000	0,013	-0,049
-200,133	-200,000	0,093	-0,553
-199,119	28,577	-0,207	0,143
-198,104	16,126	-0,480	0,309
-197,090	700,000	-0,082	0,185
-196,075	-104,098	0,821	0,155
-195,060	554,027	-0,218	0,431
-194,046	-200,000	-0,027	-0,315
-193,031	-200,000	-0,031	-0,307
-192,017	-35,820	0,397	0,175
-191,002	-172,686	-0,618	0,016
-189,987	-83,728	0,153	-0,040
-188,973	-120,943	0,544	-0,074
-187,958	561,817	0,092	0,183
-186,944	379,684	0,300	-0,504
-185,929	-148,607	0,382	-0,025
-184,914	558,897	0,253	-0,501
-183,900	-200,000	-0,094	0,346
-182,885	14,799	0,316	-0,202
-181,871	-200,000	0,006	-0,325
-180,856	700,000	0,241	0,707
-179,842	700,000	-0,168	0,536
-178,827	-200,000	0,034	-0,284
-177,812	-200,000	0,049	0,339
-176,798	-49,678	-0,118	-0,046
-175,783	-97,373	0,291	0,062
-174,769	506,972	0,230	0,438
-173,754	512,270	0,094	-0,179
-172,739	-200,000	-0,155	-0,671
-171,725	24,837	0,494	-0,334
-170,710	700,000	0,069	-0,182
-169,696	130,067	-0,356	-0,372
-168,681	44,620	-0,232	0,175
-167,666	142,716	0,355	0,386
-166,652	-200,000	0,109	0,504
-165,637	1,561	-0,313	-0,184
-164,623	210,333	-0,180	-0,232
-163,608	-200,000	0,049	-0,868
-162,593	49,148	0,124	0,095
-161,579	700,000	-0,065	0,222
-160,564	288,563	0,154	0,229
-159,550	-108,825	-0,638	0,111
-158,535	-142,490	0,282	-0,022
-157,520	156,292	-0,093	0,105
-156,506	606,627	-0,220	0,449
-155,491	-200,000	-0,055	-0,435
-154,477	-48,602	0,273	0,107
-153,462	-144,071	-0,342	0,026
-152,447	121,597	0,177	-0,180
-151,433	-133,251	-0,430	-0,044
-150,418	-176,762	0,243	-0,005
-149,404	-200,000	-0,005	-0,284
-148,389	-200,000	-0,011	-0,104
-147,374	-98,026	0,337	0,070
-146,360	-200,000	0,056	-0,244
-145,345	700,000	-0,103	-0,359
-144,331	-70,092	-0,296	0,091
-143,316	-18,483	0,282	-0,143
-142,302	-4,753	-0,435	0,244
-141,287	-11,626	0,112	0,060
-140,272	-200,000	-0,046	0,292
-139,258	-72,371	0,067	0,020
-138,243	161,474	-0,187	-0,214
-137,229	-81,939	0,341	0,090
-136,214	170,675	0,275	0,323
-135,199	-137,514	-0,341	0,031
-134,185	74,370	0,338	-0,290
-133,170	-61,387	0,551	0,188
-132,156	246,179	-0,239	-0,330
-131,141	-145,409	-0,346	0,025
-130,126	-39,404	0,205	0,087
-129,112	244,946	0,312	0,429
-128,097	-34,751	0,236	-0,105
-127,083	21,210	-0,142	0,094
-126,068	-58,373	0,092	-0,032
-125,053	-113,507	0,348	-0,055
-124,039	81,785	0,118	0,104
-123,024	700,000	0,102	-0,356
-122,010	106,123	-0,403	0,390
-120,995	96,692	0,212	0,198
-119,980	-120,250	-0,078	-0,011
-118,966	108,876	0,161	-0,157
-117,951	22,037	-0,160	0,106
-116,937	700,000	-0,197	0,508
-115,922	-38,262	0,501	-0,216
-114,907	-168,696	-0,470	-0,014
-113,893	86,888	0,310	-0,279
-112,878	-43,204	-0,396	0,163
-111,864	-50,969	0,370	0,141
-110,849	-168,805	0,593	-0,018
-109,834	64,512	0,418	0,343
-108,820	-200,000	-0,030	-0,126
-107,805	-67,559	0,318	0,101
-106,791	432,487	-0,313	-0,555
-105,776	178,844	0,214	0,255
-104,761	423,720	0,125	0,221
-103,747	462,796	-0,102	-0,186
-102,732	287,123	-0,174	0,256
-101,718	-83,237	0,546	-0,142
-100,703	-200,000	-0,068	0,413
-99,689	60,801	-0,210	-0,170
-98,674	-177,610	0,300	-0,006
-97,659	700,000	-0,122	0,274
-96,645	97,095	0,113	0,106
-95,630	-94,236	0,403	0,089
-94,616	260,959	-0,230	-0,325
-93,601	-188,645	0,471	-0,005
-92,586	-142,155	-0,335	0,027
-91,572	308,368	0,053	0,081
-90,557	700,000	0,079	0,259
-89,543	-8,700	-0,173	0,094
-88,528	-98,827	-0,177	0,036
-87,513	-200,000	0,071	-0,335
-86,499	-200,000	-0,163	0,667
-85,484	700,000	0,181	-0,585
-84,470	13,994	-0,158	-0,100
-83,455	242,591	0,121	0,166
-82,440	-73,696	-0,255	0,075
-81,426	-200,000	0,155	0,625
-80,411	-200,000	-0,132	-0,558
-79,397	53,263	0,278	0,217
-78,382	45,458	0,581	-0,436
-77,367	-86,077	0,200	0,050
-76,353	90,143	0,072	0,065
-75,338	612,204	0,160	-0,328
-74,324	607,595	0,096	0,197
-73,309	-118,807	-0,512	0,073
-72,294	286,216	0,211	-0,311
-71,280	131,529	-0,255	-0,268
-70,265	-103,715	-0,361	-0,068
-69,251	255,253	0,183	0,256
-68,236	-66,028	-0,044	-0,014
-67,221	-200,000	-0,030	-0,436
-66,207	-86,892	0,355	-0,088
-65,192	187,478	0,361	0,439
-64,178	22,803	-0,535	-0,356
-63,163	-32,334	0,393	-0,178
-62,149	165,948	-0,208	0,240
-61,134	-200,000	-0,028	1,007
-60,119	700,000	-1,728	-4,110
-59,105	164,578	0,878	1,009
-58,090	313,656	0,468	-0,719
-57,076	700,000	2,853	7,181
-56,061	89,310	59,422	53,910
-55,046	431,434	1142,885	2022,584
-54,032	303,664	2183,073	3302,565
-53,017	99,571	2005,489	1889,476
-52,003	30,957	1752,908	1221,042
-50,988	22,170	1550,950	1028,859
-49,973	17,386	1481,820	955,999
-48,959	15,787	1463,323	935,105
-47,944	15,408	1459,035	930,214
-46,930	15,498	1454,902	928,045
-45,915	15,409	1451,129	925,105
-44,900	15,645	1448,395	924,632
-43,886	15,435	1446,267	922,074
-42,871	15,341	1444,807	920,590
-41,857	15,364	1442,639	919,302
-40,842	15,273	1440,877	917,642
-39,827	15,369	1439,745	917,408
-38,813	15,318	1437,814	915,865
-37,798	15,401	1436,154	915,227
-36,784	15,290	1435,113	913,915
-35,769	15,274	1433,832	912,975
-34,754	15,382	1432,169	912,470
-33,740	15,126	1431,465	910,590
-32,725	15,362	1429,675	910,702
-31,711	15,367	1428,059	909,666
-30,696	15,238	1427,447	908,535
-29,681	15,327	1425,410	907,685
-28,667	15,540	1423,743	907,745
-27,652	15,512	1422,577	906,813
-26,638	15,408	1421,700	905,654
-25,623	15,309	1419,983	903,992
-24,609	15,228	1418,997	902,887
-23,594	15,165	1418,012	901,885
-22,579	15,241	1416,997	901,611
-21,565	15,405	1415,250	901,351
-20,550	15,357	1414,314	900,461
-19,536	15,464	1412,213	899,661
-18,521	15,483	1411,892	899,526
-17,506	15,143	1411,320	897,296
-16,492	15,319	1410,308	897,564
-15,477	15,261	1409,332	896,595
-14,463	15,331	1407,166	895,554
-13,448	15,342	1407,246	895,628
-12,433	15,301	1406,070	894,629
-11,419	15,288	1404,548	893,552
-10,404	15,271	1404,133	893,164
-9,390	15,104	1402,319	891,078
-8,375	15,398	1401,259	891,942
-7,360	15,130	1401,153	890,408
-6,346	15,400	1399,314	890,646
-5,331	15,103	1399,830	889,352
-4,317	15,047	1397,812	887,735
-3,302	15,097	1395,538	886,524
-2,287	14,938	1395,974	885,918
-1,273	15,136	1396,134	887,042
-0,258	14,433	1398,051	884,470
0,756	11,570	1360,127	846,879
1,771	6,342	1294,263	779,842
2,786	3,076	1266,135	746,921
3,800	2,563	1258,880	740,103
4,815	1,579	1253,495	732,135
5,829	0,862	1249,634	726,374
6,844	0,601	1246,793	723,423
7,859	0,617	1244,554	722,158
8,873	0,454	1242,996	720,424
9,888	0,536	1240,323	719,224
10,902	0,614	1238,256	718,356
11,917	0,386	1236,894	716,433
12,931	0,605	1235,316	716,520
13,946	0,515	1232,728	714,546
14,961	0,496	1231,373	713,627
15,975	0,584	1229,506	712,922
16,990	0,606	1227,574	711,861
18,004	0,752	1225,608	711,368
19,019	0,704	1224,172	710,263
20,034	0,703	1221,626	708,739
21,048	0,676	1220,963	708,184
22,063	0,781	1219,307	707,674
23,077	0,668	1217,809	706,231
24,092	0,460	1216,445	704,422
25,107	0,769	1213,885	704,341
26,121	0,842	1211,197	703,082
27,136	0,623	1210,047	701,350
28,150	0,914	1207,162	700,989
29,165	0,835	1205,315	699,507
30,180	0,774	1202,648	697,634
31,194	0,879	1199,438	696,213
32,209	1,049	1195,878	694,891
33,223	1,287	1190,562	692,848
34,238	1,115	1187,065	689,987
35,253	1,261	1184,783	689,282
36,267	1,328	1182,662	688,313
37,282	1,248	1181,773	687,389
38,296	1,415	1179,235	686,629
39,311	1,309	1178,845	685,880
40,326	1,375	1177,471	685,338
41,340	1,268	1177,037	684,560
42,355	1,368	1175,408	684,021
43,369	1,253	1175,241	683,362
44,384	1,363	1173,973	683,083
45,399	1,171	1172,671	681,417
46,413	1,340	1171,699	681,571
47,428	1,358	1169,728	680,463
48,442	1,389	1168,886	680,071
49,457	1,307	1167,984	679,137
50,472	1,392	1167,039	678,926
51,486	1,512	1164,944	678,205
52,501	1,159	1164,854	676,531
53,515	1,409	1162,979	676,517
54,530	1,367	1162,019	675,731
55,544	1,342	1161,455	675,252
56,559	1,387	1160,428	674,815
57,574	1,394	1159,801	674,438
58,588	1,518	1158,263	674,055
59,603	1,580	1156,867	673,477
60,617	1,364	1156,499	672,264
61,632	1,533	1154,887	672,036
62,647	1,436	1153,950	671,017
63,661	1,425	1153,123	670,445
64,676	1,202	1152,652	669,144
65,690	1,322	1151,516	668,975
66,705	1,459	1149,380	668,298
67,720	1,464	1148,171	667,578
68,734	1,546	1147,545	667,535
69,749	1,475	1146,712	666,699
70,763	1,186	1146,135	665,047
71,778	1,333	1144,439	664,667
72,793	1,448	1144,249	665,026
73,807	1,831	1143,507	666,234
74,822	2,838	1145,185	671,603
75,836	4,598	1145,235	679,327
76,851	4,960	1144,051	680,173
77,866	4,856	1143,616	679,416
78,880	4,814	1142,283	678,397
79,895	4,826	1140,514	677,359
80,909	4,859	1139,553	676,892
81,924	4,807	1138,239	675,842
82,939	4,734	1137,314	674,935
83,953	4,575	1134,591	672,587
84,968	3,071	1131,574	664,229
85,982	2,006	1129,743	658,496
86,997	1,646	1128,127	655,952
88,012	1,893	1127,455	656,591
89,026	2,160	1126,348	657,061
90,041	1,925	1125,425	655,468
91,055	1,727	1124,302	653,920
92,070	2,212	1123,480	655,494
93,084	2,392	1123,616	656,306
94,099	2,223	1122,320	654,782
95,114	2,025	1121,427	653,368
96,128	1,889	1119,637	651,701
97,143	1,651	1117,939	649,655
98,157	1,886	1116,720	649,914
99,172	1,562	1116,595	648,410
100,187	1,736	1114,707	648,022
101,201	1,583	1113,468	646,605
102,216	1,561	1113,207	646,322
103,230	1,636	1111,177	645,422
104,245	1,846	1109,998	645,595
105,260	1,354	1110,450	643,722
106,274	1,680	1107,608	643,419
107,289	1,670	1106,640	642,775
108,303	1,775	1105,207	642,348
109,318	1,518	1105,267	641,258
110,333	1,380	1103,804	639,783
111,347	1,572	1102,300	639,684
112,362	1,655	1101,622	639,604
113,376	1,391	1100,881	638,017
114,391	1,411	1098,818	636,867
115,406	1,256	1099,220	636,412
116,420	1,536	1096,974	636,247
117,435	1,654	1096,169	636,240
118,449	1,337	1095,641	634,560
119,464	1,400	1094,549	634,154
120,479	1,391	1092,522	632,903
121,493	1,353	1091,419	632,069
122,508	1,290	1090,318	631,131
123,522	1,143	1090,050	630,319
124,537	1,140	1088,742	629,515
125,552	1,119	1087,330	628,572
126,566	1,192	1086,507	628,361
127,581	0,729	1085,484	625,802
128,595	0,769	1084,427	625,323
129,610	0,845	1083,141	624,857
130,624	0,663	1082,454	623,671
131,639	0,780	1081,028	623,295
132,654	0,462	1081,170	622,022
133,668	0,916	1080,022	623,200
134,683	0,867	1078,448	622,054
135,697	1,152	1077,733	622,778
136,712	0,964	1077,010	621,547
137,727	1,007	1076,557	621,427
138,741	0,919	1076,682	621,097
139,756	1,052	1075,297	620,808
140,770	0,994	1074,172	619,882
141,785	1,100	1073,518	619,903
142,800	1,003	1072,483	618,870
143,814	1,056	1071,924	618,727
144,829	1,124	1071,356	618,638
145,843	1,112	1070,415	618,011
146,858	1,029	1069,352	617,020
147,873	1,160	1068,274	616,895
148,887	1,261	1067,392	616,761
149,902	1,086	1066,966	615,761
150,916	1,071	1064,873	614,454
151,931	1,115	1064,272	614,252
152,946	1,115	1062,923	613,436
153,960	0,869	1063,157	612,531
154,975	1,041	1061,422	612,194
155,989	0,878	1060,578	611,006
157,004	0,866	1060,200	610,702
158,019	0,920	1058,719	610,033
159,033	1,133	1057,459	610,131
160,048	0,623	1056,429	607,439
161,062	0,635	1055,437	606,878
162,077	0,668	1053,729	605,991
163,092	0,656	1052,880	605,418
164,106	0,856	1051,952	605,655
165,121	0,691	1050,753	604,261
166,135	0,780	1050,689	604,548
167,150	1,016	1049,734	604,908
168,165	0,995	1048,721	604,202
169,179	1,231	1047,255	604,265
170,194	1,069	1047,267	603,590
171,208	1,294	1046,147	603,806
172,223	1,452	1045,865	604,237
173,237	1,507	1044,571	603,672
174,252	1,392	1044,013	602,856
175,267	1,522	1043,529	603,059
176,281	1,564	1042,480	602,580
177,296	1,426	1042,059	601,751
178,310	1,640	1041,004	601,956
179,325	1,571	1040,402	601,297
180,340	1,533	1039,370	600,514
181,354	1,728	1038,640	600,831
182,369	1,875	1037,538	600,737
183,383	1,613	1038,032	599,949
184,398	1,617	1036,503	599,044
185,413	1,713	1036,162	599,188
186,427	1,714	1035,038	598,506
187,442	1,768	1034,027	598,100
188,456	1,616	1033,342	597,067
189,471	1,997	1032,367	597,967
190,486	1,732	1032,374	596,893
191,500	1,735	1031,699	596,476
192,515	1,833	1029,894	595,784
193,529	1,863	1030,211	596,046
194,544	1,743	1029,610	595,193
195,559	1,959	1028,836	595,557
196,573	1,951	1028,120	595,072
197,588	2,279	1028,346	596,457
198,602	2,298	1027,753	596,148
199,617	1,923	1026,040	593,651
200,632	2,026	1025,793	593,875
201,646	2,339	1024,916	594,556
202,661	2,096	1024,777	593,489
203,675	2,139	1023,827	593,071
204,690	2,110	1023,625	592,802
205,705	3,242	1025,075	598,029
206,719	4,601	1026,165	603,937
207,734	4,276	1024,040	601,385
208,748	3,080	1021,131	594,988
209,763	3,359	1022,226	596,678
210,777	4,062	1020,436	598,325
211,792	4,348	1016,964	597,360
212,807	4,036	1013,131	593,870
213,821	4,160	1010,053	592,506
214,836	3,623	1007,812	589,099
215,850	2,443	1005,831	583,385
216,865	2,392	1003,592	581,854
217,880	3,025	1004,808	584,946
218,894	4,886	1005,135	592,217
219,909	5,438	1005,344	594,414
220,923	5,384	1004,361	593,592
221,938	5,609	1002,800	593,487
222,953	5,469	1002,253	592,595
223,967	5,863	1000,813	593,206
224,982	5,659	1000,621	592,281
225,996	5,740	999,971	592,166
227,011	5,587	999,536	591,293
228,026	5,040	995,983	587,088
229,040	3,104	992,972	577,968
230,055	1,963	991,539	572,790
231,069	2,024	990,593	572,440
232,084	2,122	989,728	572,274
233,099	1,853	988,020	570,242
234,113	1,927	987,185	570,001
235,128	2,421	986,930	571,677
236,142	2,880	985,983	572,816
237,157	2,320	984,509	569,824
238,172	2,187	983,510	568,716
239,186	1,823	981,917	566,401
240,201	1,959	980,636	566,134
241,215	2,040	978,693	565,279
242,230	1,949	977,859	564,423
243,245	1,883	976,592	563,413
244,259	1,822	976,632	563,175
245,274	2,111	975,040	563,296
246,288	1,946	973,390	561,697
247,303	1,975	972,725	561,386
248,317	1,746	972,209	560,207
249,332	1,990	971,428	560,626
250,347	1,780	970,798	559,450
251,361	1,863	969,883	559,196
252,376	1,824	968,520	558,232
253,390	1,752	966,767	556,924
254,405	1,400	966,499	555,442
255,420	1,644	965,537	555,750
256,434	1,684	965,165	555,649
257,449	1,934	964,273	556,020
258,463	1,910	963,303	555,337
259,478	1,878	962,495	554,719
260,493	1,874	961,722	554,225
261,507	2,040	960,519	554,107
262,522	1,916	959,853	553,236
263,536	1,994	958,436	552,670
264,551	1,999	958,220	552,530
265,566	1,945	956,919	551,548
266,580	2,037	956,056	551,350
267,595	1,858	955,399	550,291
268,609	1,885	954,746	549,979
269,624	2,037	953,412	549,726
270,639	2,121	952,544	549,497
271,653	1,781	952,238	548,057
272,668	1,811	951,211	547,541
273,682	1,898	950,320	547,307
274,697	1,991	949,705	547,254
275,712	1,954	949,467	546,951
276,726	1,841	948,227	545,797
277,741	1,832	947,165	545,121
278,755	2,103	946,998	545,964
279,770	2,168	945,790	545,469
280,785	2,267	944,759	545,197
281,799	1,882	944,375	543,563
282,814	2,008	943,556	543,510
283,828	1,698	942,855	541,961
284,843	2,090	942,138	542,917
285,857	1,934	941,312	541,850
286,872	1,929	940,069	541,087
287,887	1,996	939,427	540,924
288,901	2,085	939,073	541,001
289,916	1,896	938,467	539,947
290,930	1,777	938,032	539,242
291,945	1,910	937,453	539,349
292,960	2,065	935,481	538,731
293,974	2,016	935,601	538,594
294,989	2,036	934,822	538,182
296,003	2,246	934,496	538,707
297,018	2,596	933,895	539,567
298,033	2,256	932,001	537,239
299,047	2,051	931,603	536,250
300,062	2,365	931,015	536,989
301,076	2,546	930,048	537,037
302,091	2,426	928,890	535,912
303,106	2,437	929,666	536,367
304,120	3,825	931,020	542,009
305,135	5,682	931,602	548,859
306,149	5,750	931,639	549,084
307,164	5,687	930,484	548,151
308,179	5,429	930,026	546,939
309,193	5,674	928,849	547,075
310,208	5,671	927,978	546,516
311,222	5,632	927,087	545,821
312,237	5,671	926,843	545,781
313,252	5,527	925,595	544,509
314,266	5,613	925,108	544,491
315,281	5,722	925,031	544,793
316,295	5,553	923,994	543,561
317,310	5,404	922,816	542,313
318,325	4,408	921,192	537,859
319,339	2,891	919,112	531,341
320,354	2,178	917,743	528,040
321,368	2,113	917,462	527,618
322,383	2,108	916,909	527,252
323,398	1,974	916,563	526,554
324,412	2,002	915,582	526,057
325,427	2,096	915,236	526,151
326,441	1,957	914,945	525,470
327,456	2,153	913,866	525,498
328,470	2,151	913,090	525,011
329,485	1,920	913,428	524,374
330,500	2,099	913,127	524,788
331,514	2,003	911,546	523,518
332,529	1,971	911,283	523,224
333,543	2,049	910,823	523,195
334,558	2,251	910,610	523,740
335,573	3,117	911,630	527,279
336,587	10,627	868,766	527,047
337,602	57,734	501,888	391,025
338,616	122,510	114,727	114,398
339,631	47,567	15,958	11,851
340,646	60,752	2,080	1,643
341,660	-93,358	-0,452	-0,099
342,675	-21,228	-1,191	-0,578
343,689	-92,001	-1,573	-0,352
344,704	14,301	-1,120	-0,695
345,719	-3,122	-1,064	-0,590
346,733	-90,909	-1,378	-0,314
347,748	-106,317	-0,782	-0,138
348,762	12,055	-0,801	-0,490
349,777	-4,354	-1,106	-0,608
350,792	66,102	-0,846	-0,684
351,806	95,398	-1,409	-1,280
352,821	-90,898	-1,269	-0,289
353,835	147,181	-0,867	-0,930
354,850	42,747	-1,035	-0,750
355,865	46,423	-0,931	-0,687
356,879	-104,714	-1,319	-0,240
357,894	-25,505	-1,539	-0,722
358,908	83,970	-1,345	-1,169
359,923	-68,422	-1,356	-0,417
360,938	131,239	-0,627	-0,641
361,952	-8,081	-1,372	-0,734
362,967	45,762	-1,192	-0,876
363,981	35,590	-0,909	-0,635
364,996	21,040	-1,053	-0,678
366,010	51,267	-1,438	-1,085
367,025	11,430	-1,186	-0,722
368,040	43,376	-1,046	-0,760
369,054	-40,567	-0,876	-0,360
370,069	-194,465	-1,026	0,006
371,083	9,968	-1,165	-0,703
372,098	-21,854	-1,093	-0,527
373,113	19,044	-1,061	-0,675
374,127	227,878	-0,700	-0,908
375,142	52,687	-0,577	-0,438
376,156	68,871	-0,896	-0,731
377,171	74,483	-1,023	-0,855
378,186	46,711	-0,847	-0,625
379,200	40,088	-1,007	-0,719
380,215	5,636	-1,169	-0,686
381,229	112,579	-0,960	-0,924
382,244	123,482	-0,717	-0,715
383,259	69,387	-1,316	-1,076
384,273	-21,611	-1,131	-0,546
385,288	186,367	-0,616	-0,730
386,302	-19,189	-0,819	-0,403
387,317	126,598	-0,754	-0,759
388,332	700,000	-0,349	-0,793
389,346	-17,996	-0,999	-0,496
390,361	67,907	-0,971	-0,789
391,375	167,777	-0,508	-0,575
392,390	-88,158	-0,947	0,224
393,405	87,895	-0,675	-0,594
394,419	-42,091	-1,156	-0,468
395,434	97,442	-0,768	-0,701
396,448	191,938	-0,993	-1,190
397,463	7,023	-1,117	-0,660
398,478	237,510	-0,739	-0,975
399,492	294,990	-0,745	-1,085
400,507	-18,805	-1,177	-0,580
401,521	-8,330	-0,658	-0,351
402,536	41,450	-0,670	-0,481
403,550	-81,819	-1,179	-0,305
404,565	27,130	-0,923	-0,614
405,580	246,092	-0,693	-0,929
406,594	76,904	-1,371	-1,155
407,609	247,158	-0,671	-0,902
408,623	-114,562	-0,840	-0,127
409,638	-111,179	-0,757	-0,122
410,653	-52,412	-1,139	-0,416
411,667	-88,233	-0,875	-0,206
412,682	384,429	-0,385	-0,631
413,696	215,678	-0,606	-0,765
414,711	-5,347	-1,138	-0,619
415,726	42,362	-1,004	-0,724
416,740	15,089	-1,116	-0,692
417,755	-75,931	-0,878	-0,245
418,769	229,509	-1,009	-1,309
419,784	-125,793	-0,873	-0,104
420,799	-200,000	-0,029	0,131
421,813	-86,918	-1,033	-0,248
422,828	63,757	-0,768	-0,612
423,842	-104,678	-0,387	-0,070
424,857	135,728	-1,055	-1,090
425,872	135,664	-0,778	-0,804
426,886	-111,617	-0,881	-0,140
427,901	-16,123	-0,801	-0,402
428,915	-112,013	-1,114	-0,176
429,930	233,189	-0,530	-0,692
430,945	71,503	-1,159	-0,954
431,959	6,876	-0,950	-0,559
432,974	169,273	-0,657	-0,744
433,988	11,132	-1,146	-0,693
435,003	57,288	-0,543	-0,420
436,018	198,123	-0,646	-0,784
437,032	-34,199	-0,791	-0,343
438,047	-3,290	-0,920	-0,507
439,061	204,870	-0,623	-0,767
440,076	243,378	-0,723	-0,962
441,091	-20,471	-0,939	-0,456
442,105	-145,356	-0,327	0,023
443,120	177,160	-0,446	-0,515
444,134	-121,530	-0,613	0,080
445,149	178,618	-0,263	-0,304
446,163	7,890	-0,623	-0,369
447,178	97,404	-0,759	-0,690
448,193	93,581	-1,018	-0,913
449,207	75,276	-1,247	-1,041
450,222	-44,425	-0,839	-0,331
451,236	55,319	-0,489	-0,374
452,251	-38,011	-0,813	-0,341
453,266	26,038	-0,802	-0,529
454,280	27,233	-0,798	-0,530
455,295	-70,021	-0,954	-0,286
456,309	138,092	-0,481	-0,500
457,324	213,862	-0,621	-0,779
458,339	-70,158	-0,762	-0,228
459,353	460,192	-0,620	-1,096
460,368	174,327	-0,536	-0,614
461,382	-94,827	-1,000	-0,213
462,397	-80,019	-0,750	-0,198
463,412	38,640	-0,929	-0,655
464,426	76,864	-0,784	-0,659
465,441	4,967	-0,730	-0,424
466,455	93,798	-0,687	-0,616
467,470	-112,278	-0,746	-0,117
468,485	700,000	-0,281	-0,731
469,499	-87,003	-0,656	-0,157
470,514	-59,535	-0,719	-0,243
471,528	15,694	-0,818	-0,508
472,543	4,262	-0,998	-0,577
473,558	17,172	-0,496	-0,311
474,572	-63,191	-0,510	-0,165
475,587	-39,225	-0,429	-0,177
476,601	700,000	-0,276	-0,640
477,616	41,566	-0,551	-0,394
478,631	-157,370	-0,656	0,031
479,645	39,987	-0,932	-0,661
480,660	-59,854	-0,515	-0,173
481,674	700,000	-0,512	-1,112
482,689	-145,116	-0,720	-0,051
483,703	-37,693	-1,017	-0,426
484,718	-37,672	-0,697	-0,292
485,733	0,253	-0,561	-0,316
486,747	492,851	-0,425	-0,772
487,762	-61,740	-0,725	-0,239
488,776	700,000	-0,188	-0,587
489,791	-49,838	-0,670	-0,250
490,806	-12,149	-0,698	-0,360
491,820	523,166	-0,434	-0,809
492,835	157,555	-0,674	-0,738
493,849	200,164	-0,627	-0,762
494,864	33,759	-0,644	-0,442
495,879	394,607	-0,508	-0,839
496,893	174,477	-0,863	-0,987
497,908	-52,268	-0,948	-0,345
498,922	-36,683	-0,772	-0,326
499,937	203,721	-0,282	-0,345
500,952	21,264	-0,697	-0,446
501,966	139,069	-0,564	-0,586
502,981	-91,517	-0,776	-0,173
503,995	223,540	-0,528	-0,673
505,010	340,301	-0,388	-0,600
506,025	-46,073	-0,920	0,356
507,039	-56,234	-0,604	-0,211
508,054	-0,527	-0,510	-0,285
509,068	639,016	-0,163	-0,328
510,083	-109,880	-1,081	-0,177
511,098	316,518	-0,162	-0,242
512,112	37,458	-0,991	-0,692
513,127	-33,302	-0,812	-0,353
514,141	37,270	-0,235	-0,164
515,156	2,559	-1,011	-0,576
516,171	73,727	-0,648	-0,536
517,185	-109,359	-0,429	-0,071
518,200	-1,965	-0,616	-0,341
519,214	64,555	-0,445	-0,353
520,229	700,000	-0,176	-0,548
521,243	-44,636	-0,256	0,101
522,258	-64,828	-0,489	-0,155
523,273	-79,245	-0,097	-0,026
524,287	-24,380	-0,933	-0,437
525,302	42,172	-0,691	-0,494
526,316	700,000	-0,289	-0,960
527,331	3,924	-0,734	-0,422
528,346	-104,506	-0,664	0,120
529,360	80,326	-0,805	-0,683
530,375	143,617	-0,230	-0,242
531,389	-13,539	-0,687	-0,350
532,404	57,552	-0,645	-0,496
533,419	-131,993	-0,822	0,083
534,433	-43,351	-1,079	-0,428
535,448	159,340	-0,542	-0,595
536,462	-26,393	-0,827	-0,381
537,477	326,318	-0,315	-0,476
538,492	21,598	-0,962	-0,615
539,506	700,000	-0,264	-0,593
540,521	40,119	-0,585	-0,414
541,535	-81,942	-0,619	-0,158
542,550	53,361	-0,701	-0,529
543,565	-176,457	-0,436	0,009
544,579	-39,291	-0,669	-0,275
545,594	-86,601	-0,338	0,081
546,608	-27,616	-0,774	-0,353
547,623	150,004	-0,517	-0,552
548,638	47,493	-0,764	-0,560
549,652	11,643	-0,741	-0,446
550,667	700,000	-0,279	-0,609
551,681	162,939	-0,630	-0,698
552,696	201,541	-0,316	-0,383
553,711	659,628	-0,303	-0,616
554,725	47,612	-0,680	-0,499
555,740	349,479	-0,278	-0,434
556,754	28,724	-0,500	-0,333
557,769	149,400	-0,691	-0,736
558,783	50,042	-0,493	-0,366
559,798	-61,861	-0,836	-0,274
560,813	-192,300	-0,503	0,004
561,827	-200,000	-0,004	-0,421
562,842	-111,542	-0,659	-0,104
563,856	-67,390	-0,459	0,141
564,871	180,542	-0,516	-0,596
565,886	-96,734	-0,294	0,060
566,900	10,715	-0,256	-0,153
567,915	285,026	-0,648	-0,920
568,929	117,511	-0,852	-0,825
569,944	81,516	-0,692	-0,588
570,959	-155,186	-0,596	0,030
571,973	-133,021	-0,214	0,021
572,988	119,617	-0,361	0,352
574,002	-128,327	-0,612	-0,068
575,017	239,856	-0,698	-0,915
576,032	281,959	-0,381	-0,538
577,046	57,644	-0,588	-0,451
578,061	80,849	-0,680	-0,576
579,075	-156,995	-0,474	-0,022
580,090	202,798	-0,447	-0,544
581,105	69,945	-0,314	-0,254
582,119	347,730	-0,291	-0,452
583,134	-94,012	-0,690	-0,148
584,148	-1,478	-0,823	-0,455
585,163	-100,846	-0,658	0,126
586,178	319,569	-0,186	-0,279
587,192	-17,124	-0,423	0,209
588,207	-30,761	-0,415	0,184
589,221	-27,271	-0,483	-0,220
590,236	-1,037	-0,228	-0,127
591,251	80,103	-0,487	-0,411
592,265	-167,422	-0,389	0,012
593,280	159,995	-0,407	-0,446
594,294	268,509	-0,368	-0,508
595,309	36,028	-0,375	-0,259
596,324	20,259	-0,259	-0,164
597,338	315,717	-0,465	-0,690
598,353	700,000	-0,198	-0,533
599,367	67,860	-0,421	-0,338
600,382	117,608	-0,615	-0,594
601,396	629,006	-0,246	-0,491
602,411	-105,416	-0,724	-0,128
603,426	-64,353	-0,764	-0,243
604,440	45,268	-0,462	-0,334
605,455	-81,813	-0,342	0,087
606,469	39,594	-0,814	-0,572
607,484	-13,030	-0,449	-0,228
608,499	-74,079	-0,219	-0,062
609,513	104,473	-0,544	-0,502
610,528	-200,000	-0,078	-0,291
611,542	631,364	-0,245	-0,489
612,557	-2,121	-0,595	-0,327
613,572	-45,463	-0,669	0,259
614,586	28,944	-0,533	-0,354
615,601	700,000	-0,172	-0,473
616,615	349,559	-0,150	0,232
617,630	-72,386	-0,952	-0,274
618,645	-150,232	-0,473	-0,028
619,659	-64,649	-0,588	-0,186
620,674	100,819	-0,340	-0,310
621,688	-29,396	-0,513	-0,229
622,703	53,580	-0,528	-0,397
623,718	250,186	-0,349	-0,466
624,732	209,480	-0,172	0,211
625,747	118,032	0,092	-0,089
626,761	38,221	-0,540	-0,376
627,776	-77,254	-0,692	-0,188
628,791	-8,845	-0,258	-0,135
629,805	-20,622	-0,577	-0,277
630,820	-9,613	-0,417	-0,217
631,834	-61,789	-0,637	-0,208
632,849	-19,454	-0,702	-0,340
633,864	151,162	-0,278	-0,297
634,878	-78,087	-0,482	-0,129
635,893	43,661	-0,301	-0,215
636,907	208,295	-0,191	-0,234
637,922	-90,457	-0,613	-0,138
638,936	-2,366	-0,383	-0,210
639,951	700,000	-0,449	-0,997
640,966	265,790	-0,251	-0,343
641,980	-42,447	-0,593	0,236
642,995	-121,098	-0,510	0,066
644,009	-200,000	-0,013	-0,136
645,024	466,655	-0,149	-0,263
646,039	117,914	-0,155	-0,149
647,053	536,760	-0,400	-0,746
648,068	-50,639	-0,468	-0,172
649,082	-200,000	0,060	-0,231
650,097	-127,142	-0,932	-0,106
651,112	-200,000	-0,119	-0,492
652,126	41,012	-0,543	-0,383
653,141	-200,000	-0,030	-0,118
654,155	-64,072	-0,314	-0,100
655,170	-11,009	-0,105	0,054
656,185	-123,736	-0,450	0,055
657,199	515,061	-0,306	-0,562
658,214	60,099	-0,234	0,181
659,228	688,878	-0,372	-0,765
660,243	-200,000	-0,056	-0,331
661,258	-28,063	-0,466	-0,210
662,272	-111,610	-0,403	-0,063
663,287	176,632	-0,429	-0,488
664,301	18,623	-0,556	-0,347
665,316	-3,960	-0,653	-0,353
666,331	60,967	-0,553	-0,428
667,345	88,251	-0,527	-0,457
668,360	84,172	-0,291	-0,248
669,374	374,246	-0,302	-0,483
670,389	-163,037	-0,704	0,026
671,404	129,646	-0,591	-0,591
672,418	224,484	-0,469	-0,594
673,433	537,494	-0,174	0,325
674,447	116,552	-0,372	-0,357
675,462	-126,536	-0,363	0,042
676,476	-200,000	-0,069	-0,281
677,491	-164,051	-0,645	-0,023
678,506	100,216	-0,527	-0,477
679,520	158,097	-0,309	0,335
680,535	-31,217	-0,710	-0,312
681,549	-113,457	-0,412	-0,062
682,564	-200,000	-0,023	0,120
683,579	567,801	-0,075	0,142
684,593	-91,771	-0,570	-0,126
685,608	-34,155	-0,275	0,118
686,622	-112,722	-0,678	-0,104
687,637	-142,803	-0,405	-0,030
688,652	261,099	-0,195	-0,265
689,666	374,195	-0,194	-0,309
690,681	556,109	-0,195	-0,369
691,695	-24,350	-0,636	-0,295
692,710	700,000	0,094	-0,270
693,725	394,476	-0,033	-0,054
694,739	-38,535	-0,287	0,118
695,754	-53,048	-0,709	-0,253
696,768	27,922	-0,830	-0,545
697,783	-45,116	-0,865	-0,334
698,798	-17,413	-0,513	-0,251
699,812	119,703	-0,246	-0,238
700,827	-64,581	-0,322	0,102
701,841	700,000	-0,316	-0,761
702,856	126,335	-0,260	-0,256
703,871	236,898	-0,431	-0,558
704,885	-89,024	-0,406	0,093
705,900	700,000	-0,156	-0,370
706,914	-3,849	-0,607	0,328
707,929	67,262	-0,223	-0,177
708,944	607,616	-0,173	-0,339
709,958	65,007	-0,433	-0,341
710,973	-63,303	-0,681	0,217
711,987	-25,254	-0,454	-0,209
713,002	-62,626	-0,163	-0,053
714,017	700,000	-0,145	0,301
715,031	-53,312	-0,290	-0,103
716,046	700,000	-0,256	-0,587
717,060	44,633	-0,437	-0,313
718,075	473,350	-0,254	-0,448
719,089	-150,216	-0,415	0,025
720,104	-8,396	-0,474	0,248
721,119	-111,202	-0,570	-0,090
722,133	285,889	-0,243	-0,342
723,148	385,901	-0,148	-0,239
724,162	500,146	-0,182	-0,329
725,177	312,655	-0,461	-0,677
726,192	-200,000	-0,044	-0,889
727,206	129,109	-0,061	0,060
728,221	700,000	-0,124	-0,370
729,235	426,141	-0,235	-0,396
730,250	-200,000	-0,083	-0,316
731,265	-126,128	-0,393	-0,045
732,279	-200,000	-0,010	-0,382
733,294	1,007	-0,361	-0,201
734,308	-200,000	0,011	-0,160
735,323	10,481	-0,384	-0,228
736,338	-123,772	-0,627	0,076
737,352	-200,000	-0,127	-0,460
738,367	25,660	-0,272	0,176
739,381	-91,894	-0,189	-0,041
740,396	471,004	-0,235	-0,412
741,411	182,141	-0,676	-0,776
742,425	-74,588	-0,595	-0,166
743,440	-73,809	-0,261	-0,073
744,454	503,891	-0,419	-0,757
745,469	585,374	-0,204	-0,392
746,484	-167,732	-0,157	0,005
747,498	-152,316	-0,183	-0,010
748,513	310,215	-0,221	0,322
749,527	-80,223	-0,553	0,143
750,542	-47,665	-0,494	-0,186
751,557	-54,611	-0,275	-0,096
752,571	258,119	-0,202	-0,271
753,586	215,397	-0,479	-0,592
754,600	-111,796	-0,498	-0,078
755,615	-86,808	-0,572	0,135
756,629	-5,165	-0,352	-0,188
757,644	-10,411	-0,185	-0,095
758,659	700,000	0,138	-0,392
759,673	-112,848	-0,184	-0,028
760,688	-28,193	-0,657	-0,294
761,702	249,950	-0,290	-0,383
762,717	-55,581	-0,256	0,089
763,732	-15,681	-0,572	-0,283
764,746	-65,909	-0,214	0,066
765,761	-53,732	-0,455	-0,161
766,775	15,286	-0,480	-0,292
767,790	276,606	-0,102	-0,141
768,805	-130,656	-0,539	-0,056
769,819	-9,211	-0,499	-0,258
770,834	-177,228	-0,405	-0,008
771,848	-108,820	-0,552	0,091
772,863	160,991	-0,507	-0,551
773,878	-150,028	-0,168	0,010
774,892	700,000	-0,024	-0,069
775,907	588,806	-0,321	-0,616
776,921	431,406	-0,078	0,132
777,936	700,000	-0,207	-0,491
778,951	-58,834	-0,705	0,236
779,965	314,752	0,276	0,405
780,980	265,261	-0,354	-0,480
781,994	406,247	0,050	-0,082
783,009	-18,394	-0,362	0,175
784,024	-200,000	-0,103	-0,376
785,038	-200,000	-0,020	-0,229
786,053	-6,466	-0,135	0,071
787,067	237,571	0,072	-0,093
788,082	156,414	-0,306	-0,328
789,097	84,815	-0,403	-0,342
790,111	-56,709	-0,604	-0,206
791,126	-81,424	-0,282	-0,072
792,140	483,101	-0,096	0,169
793,155	97,560	-0,222	-0,198
794,169	302,898	-0,372	-0,536
795,184	-192,963	-0,498	0,003
796,199	55,288	-0,444	0,333
797,213	645,497	0,046	-0,091
798,228	149,505	-0,140	-0,147
799,242	55,170	-0,591	-0,442
800,257	7,209	-0,341	-0,197
801,272	203,121	-0,375	-0,451
802,286	-4,866	-0,398	-0,212
803,301	-200,000	-0,090	-0,390
804,315	-11,114	-0,301	0,154
805,330	-144,340	-0,477	0,034
806,345	700,000	-0,102	-0,227
807,359	700,000	0,232	-0,610
808,374	-12,947	0,179	-0,090
809,388	35,156	-0,426	-0,289
810,403	-54,535	-0,525	-0,183
811,418	-166,150	-0,244	0,008
812,432	87,937	0,128	0,110
813,447	373,425	-0,288	-0,455
814,461	-97,210	-0,679	0,136
815,476	570,540	-0,102	-0,194
816,491	-200,000	-0,049	-0,487
817,505	-33,684	-0,463	0,197
818,520	270,876	-0,119	-0,163
819,534	-200,000	-0,001	-0,236
820,549	156,581	-0,064	0,068
821,564	-116,337	-0,681	0,097
822,578	23,619	-0,297	0,189
823,593	-200,000	0,081	0,404
824,607	-200,000	-0,089	-0,445
825,622	392,296	-0,543	-0,877
826,637	12,288	-0,552	-0,329
827,651	700,000	0,022	0,069
828,666	-200,000	0,006	0,207
829,680	700,000	-0,233	-0,515
830,695	-95,896	-0,612	0,125
831,709	-44,020	-0,328	-0,127
832,724	43,150	-0,449	-0,317
833,739	-200,000	-0,070	-0,370
834,753	-27,936	-0,253	0,113
835,768	-27,826	-0,420	-0,188
836,782	115,672	-0,356	-0,337
837,797	-112,099	-0,612	0,094
838,812	-76,792	-0,614	-0,165
839,826	138,134	-0,247	0,251
840,841	700,000	-0,203	-0,564
841,855	-134,354	-0,275	0,026
842,870	-150,458	-0,162	0,009
843,885	408,217	0,124	0,204
844,899	-200,000	0,030	-0,149
845,914	-36,569	-0,442	-0,183
846,928	68,314	-0,483	-0,382
847,943	-131,612	-0,448	-0,045
848,958	6,053	-0,187	0,107
849,972	-64,780	-0,409	0,127
850,987	-92,408	-0,540	0,117
852,001	-200,000	-0,072	-0,249
853,016	-200,000	0,128	-0,485
854,031	700,000	0,035	0,101
855,045	69,328	-0,067	-0,053
856,060	430,402	0,149	0,251
857,074	700,000	0,109	0,253
858,089	-81,329	-0,137	-0,035
859,104	-75,505	-0,175	-0,048
860,118	700,000	-0,059	-0,137
861,133	-200,000	-0,107	-0,406
862,147	-96,162	-0,379	-0,077
863,162	322,310	-0,326	0,480
864,177	-200,000	-0,004	0,229
865,191	-95,907	-0,699	-0,143
866,206	-8,672	-0,471	0,244
867,220	-90,183	-0,291	-0,065
868,235	-200,000	-0,044	-0,319
869,250	258,246	0,263	-0,350
870,264	-120,951	-0,122	-0,016
871,279	-200,000	-0,024	-0,118
872,293	-200,000	0,017	-0,481
873,308	-156,759	-0,371	0,017
874,322	3,109	-0,658	-0,369
875,337	31,779	-0,450	0,299
876,352	113,830	-0,211	-0,198
877,366	-20,258	-0,484	0,230
878,381	-145,016	-0,486	0,034
879,395	-127,946	-0,584	0,064
880,410	414,549	-0,077	-0,126
881,425	700,000	-0,119	-0,367
882,439	-200,000	0,023	-0,216
883,454	-76,240	-0,389	0,105
884,468	39,882	-0,374	-0,259
885,483	700,000	-0,219	-0,706
886,498	240,653	0,172	-0,222
887,512	-200,000	-0,016	-0,188
888,527	-200,000	-0,121	-0,513
889,541	700,000	-0,159	-0,431
890,556	-71,477	-0,396	0,114
891,571	-200,000	-0,044	-0,154
892,585	700,000	-0,090	0,251
893,600	-200,000	0,022	-0,147
894,614	129,826	0,145	0,143
895,629	-127,996	-0,305	0,033
896,644	-200,000	-0,041	-0,160
897,658	-93,399	-0,415	0,088
898,673	-95,825	-0,249	-0,051
899,687	103,026	-0,317	0,286
900,702	-64,152	-0,276	-0,086
901,717	-22,356	0,292	-0,136
902,731	700,000	0,069	-0,217
903,746	123,664	-0,457	-0,442
904,760	156,629	-0,028	0,030
905,775	-28,536	-0,118	-0,052
906,790	-200,000	0,069	-0,831
907,804	-200,000	0,032	0,611
908,819	-56,896	0,090	-0,030
909,833	601,976	-0,300	-0,577
910,848	-21,246	0,120	0,056
911,862	-74,566	0,028	0,008
912,877	-120,770	-0,132	-0,017
913,892	24,249	-0,302	0,192
914,906	84,280	0,164	-0,138
915,921	-117,387	-0,502	-0,069
916,935	-200,000	0,033	-0,165
917,950	-200,000	0,002	0,511
918,965	-151,729	-0,083	0,005
919,979	-200,000	-0,020	0,212
920,994	-3,274	-0,300	0,160
922,008	134,942	-0,458	-0,458
923,023	-21,625	-0,321	0,150
924,038	44,530	-0,445	0,314
925,052	458,261	-0,105	0,181
926,067	700,000	-0,104	-0,221
927,081	321,967	-0,136	-0,200
928,096	71,263	-0,496	-0,396
929,111	-200,000	-0,187	-0,000
930,125	-9,417	-0,127	-0,065
931,140	-126,374	0,402	-0,046
932,154	-100,545	0,397	0,075
933,169	17,069	-0,587	-0,357
934,184	142,624	-0,591	-0,604
935,198	-64,312	-0,154	0,048
936,213	-37,027	-0,369	0,151
937,227	700,000	-0,114	-0,257
938,242	-157,294	-0,177	-0,008
939,257	296,885	-0,214	0,303
940,271	-24,492	-0,241	0,110
941,286	700,000	0,079	0,246
942,300	327,958	-0,067	0,098
943,315	673,574	-0,055	-0,109
944,330	-200,000	0,060	-0,376
945,344	-200,000	-0,107	0,474
946,359	700,000	-0,283	-0,594
947,373	-104,988	-0,234	0,041
948,388	700,000	-0,074	-0,184
949,402	288,769	0,112	-0,157
950,417	-200,000	-0,067	-0,579
951,432	-200,000	-0,124	0,449
952,446	12,870	-0,178	0,106
953,461	-57,298	-0,241	-0,081
954,475	-200,000	-0,022	-0,174
955,490	-200,000	0,170	0,700
956,505	-109,127	0,295	0,048
957,519	-136,748	0,070	0,006
958,534	113,610	-0,307	0,286
959,548	211,812	-0,211	0,255
960,563	-45,000	-0,236	-0,090
961,578	-2,572	-0,322	-0,173
962,592	-67,150	-0,090	0,027
963,607	222,212	-0,165	0,204
964,621	-88,785	-0,414	-0,094
965,636	471,937	-0,203	-0,353
966,651	338,018	-0,287	-0,430
967,665	-200,000	-0,053	0,199
968,680	74,319	-0,871	-0,702
969,694	700,000	-0,173	0,373
970,709	13,276	-0,303	-0,180
971,724	-200,000	-0,081	0,517
972,738	-60,997	-0,391	0,126
973,753	439,351	0,085	-0,143
974,767	460,498	0,247	0,424
975,782	180,024	-0,336	-0,378
976,797	-200,000	-0,102	-0,416
977,811	90,294	-0,244	-0,210
978,826	-200,000	-0,031	-0,523
979,840	-94,151	-0,218	0,045
980,855	-3,566	-0,247	-0,132
981,870	183,856	-0,385	-0,438
982,884	171,899	-0,056	0,062
983,899	-200,000	-0,009	-0,200
984,913	303,415	-0,434	0,618
985,928	36,185	-0,260	-0,176
986,942	-152,648	-0,379	0,020
987,957	305,878	-0,156	-0,223
988,972	206,139	-0,026	0,031
989,986	-96,761	-0,316	-0,063
991,001	700,000	-0,132	0,409
992,015	700,000	0,181	0,433
993,030	2,378	0,074	0,041
994,045	-200,000	0,038	0,154
995,059	90,357	-0,230	-0,197
996,074	351,185	-0,120	0,183
997,088	200,439	-0,525	0,619
998,103	-143,081	-0,189	0,014
999,118	193,652	-0,089	0,104
1000,132	21,444	-0,534	-0,332
1001,147	143,137	-0,219	-0,224
1002,161	197,987	-0,148	-0,173
1003,176	-30,184	-0,515	-0,224
1004,191	-99,548	-0,630	-0,120
1005,205	-200,000	0,060	-0,273
1006,220	-200,000	0,043	-0,300
1007,234	-200,000	-0,038	-0,208
1008,249	-82,124	-0,548	0,136
1009,264	-166,890	-0,236	-0,007
1010,278	261,874	-0,350	-0,465
1011,293	17,244	-0,209	0,127
1012,307	-78,510	0,150	-0,039
1013,322	93,032	0,109	0,094
1014,337	-24,778	0,331	-0,150
1015,351	366,292	0,161	0,249
1016,366	-44,300	0,035	0,013
1017,380	77,081	-0,314	-0,255
1018,395	25,573	-0,213	-0,136
1019,410	519,245	-0,267	-0,480
1020,424	53,551	-0,161	-0,118
1021,439	-200,000	-0,067	-0,471
1022,453	49,030	-0,350	0,251
1023,468	0,468	-0,188	0,103
1024,483	-119,361	-0,490	-0,065
1025,497	-144,514	-0,225	-0,016
1026,512	625,740	0,225	-0,436
1027,526	-94,464	0,179	0,037
1028,541	700,000	0,095	-0,230
1029,555	8,460	-0,309	0,177
1030,570	201,499	-0,090	0,106
1031,585	652,003	-0,378	-0,743
1032,599	-61,090	-0,301	0,097
1033,614	630,213	0,133	0,258
1034,628	-200,000	-0,098	-0,924
1035,643	158,758	-0,211	0,224
1036,658	700,000	-0,122	-0,320
1037,672	531,617	0,219	0,398
1038,687	-200,000	0,035	0,239
1039,701	138,753	-0,244	0,245
1040,716	-98,391	-0,369	0,072
1041,731	424,111	-0,216	-0,356
1042,745	53,813	-0,559	-0,410
1043,760	74,851	-0,247	0,198
1044,774	700,000	0,041	-0,117
1045,789	350,016	0,176	0,267
1046,804	-200,000	-0,051	0,267
1047,818	-157,265	-0,430	0,020
1048,833	-200,000	-0,010	0,099
1049,847	-87,797	-0,307	0,070
1050,862	395,108	-0,157	-0,251
1051,877	700,000	-0,108	-0,248
1052,891	-118,320	-0,308	-0,041
1053,906	16,886	-0,235	-0,142
1054,920	-86,574	-0,296	-0,069
1055,935	209,998	-0,417	-0,500
1056,950	44,793	-0,353	-0,247
1057,964	-44,901	-0,649	-0,246
1058,979	-128,800	-0,561	-0,060
1059,993	-82,188	-0,327	0,081
1061,008	700,000	-0,129	-0,304
1062,023	-65,015	0,284	0,087
1063,037	256,918	0,164	-0,216
1064,052	689,410	-0,098	0,196
1065,066	231,193	-0,220	0,275
1066,081	395,116	-0,182	0,291
1067,095	-6,935	-0,202	0,105
1068,110	-11,318	-0,212	-0,106
1069,125	-200,000	0,023	0,111
1070,139	700,000	-0,167	-0,466
1071,154	-200,000	0,012	-0,407
1072,168	-200,000	-0,025	0,112
1073,183	-81,074	-0,226	0,057
1074,198	614,122	-0,133	-0,256
1075,212	700,000	-0,162	-0,387
1076,227	-134,121	-0,105	0,010
1077,241	477,626	-0,064	-0,110
1078,256	486,410	-0,354	-0,618
1079,271	700,000	0,183	-0,559
1080,285	13,200	-0,095	-0,056
1081,300	37,657	-0,392	-0,265
1082,314	664,683	-0,191	0,377
1083,329	-89,835	0,216	0,048
1084,344	190,002	-0,209	-0,240
1085,358	-104,341	-0,105	0,018
1086,373	202,999	-0,168	-0,198
1087,387	-15,240	-0,344	0,167
1088,402	-200,000	-0,002	-0,643
1089,417	92,062	0,303	-0,260
1090,431	-59,439	-0,301	0,098
1091,446	327,321	-0,104	0,152
1092,460	700,000	-0,135	-0,323
1093,475	700,000	0,059	0,126
1094,490	-200,000	-0,007	0,164
1095,504	-200,000	-0,092	0,544
1096,519	700,000	-0,163	0,472
1097,533	687,783	-0,191	-0,382
1098,548	30,119	-0,401	0,260
1099,563	-124,439	-0,443	0,052
1100,577	-135,796	-0,367	-0,033
1101,592	-200,000	-0,034	-0,410
1102,606	9,063	-0,211	-0,121
1103,621	268,081	-0,238	0,318
1104,635	-200,000	0,066	0,575
1105,650	-200,000	-0,007	0,132
1106,665	-200,000	0,022	-0,150
1107,679	700,000	-0,043	-0,103
1108,694	-112,796	0,044	0,007
1109,708	353,498	-0,273	-0,413
1110,723	700,000	-0,095	0,211
1111,738	37,341	0,421	-0,284
1112,752	-200,000	-0,026	-0,404
1113,767	700,000	-0,134	-0,412
1114,781	-175,657	-0,212	0,004
1115,796	10,126	-0,386	-0,223
1116,811	36,273	-0,314	0,210
1117,825	-200,000	-0,089	0,331
1118,840	-49,378	-0,220	0,080
1119,854	5,003	-0,535	-0,299
1120,869	-101,147	-0,058	-0,011
1121,884	700,000	-0,064	0,193
1122,898	523,109	-0,152	-0,273
1123,913	58,470	-0,494	-0,368
1124,927	-71,020	-0,339	-0,096
1125,942	700,000	-0,029	0,071
1126,957	370,515	0,088	0,136
1127,971	-86,643	-0,223	0,052
1128,986	245,390	-0,398	0,510
1130,000	-200,000	-0,024	-0,203
1131,015	700,000	-0,195	-0,441
1132,030	-56,476	-0,372	0,125
1133,044	-52,581	0,133	-0,046
1134,059	700,000	-0,081	-0,238
1135,073	-200,000	-0,013	0,334
1136,088	-200,000	0,009	-0,354
1137,103	632,057	-0,099	0,192
1138,117	439,423	0,053	-0,087
1139,132	91,031	0,207	-0,176
1140,146	481,671	-0,213	0,368
1141,161	148,177	0,062	-0,063
1142,176	24,229	-0,242	-0,152
1143,190	700,000	-0,098	-0,215
1144,205	129,701	0,079	-0,077
1145,219	5,863	-0,029	-0,016
1146,234	193,434	-0,166	0,191
1147,248	700,000	0,128	-0,367
1148,263	422,771	-0,215	-0,351
1149,278	10,883	-0,277	-0,160
1150,292	55,910	-0,171	0,126
1151,307	48,523	-0,231	-0,164
1152,321	700,000	-0,102	0,308
1153,336	-200,000	-0,090	0,416
1154,351	406,879	-0,127	0,205
1155,365	494,682	-0,269	-0,471
1156,380	700,000	0,031	0,065
1157,394	-164,366	0,153	0,005
1158,409	-200,000	-0,132	0,778
1159,424	-113,747	-0,339	-0,050
1160,438	46,040	-0,483	0,339
1161,453	150,964	-0,262	-0,271
1162,467	-200,000	0,071	0,339
1163,482	700,000	-0,156	-0,482
1164,497	700,000	0,155	-0,502
1165,511	-200,000	-0,059	-0,356
1166,526	420,198	-0,241	-0,393
1167,540	-119,151	-0,471	0,062
1168,555	-176,996	-0,187	-0,003
1169,570	284,779	-0,152	0,208
1170,584	-14,004	-0,030	0,015
1171,599	514,473	0,040	-0,071
1172,613	217,219	-0,307	-0,371
1173,628	197,661	-0,258	-0,300
1174,643	142,591	-0,059	0,060
1175,657	-117,308	0,285	0,039
1176,672	-169,386	0,341	-0,009
1177,686	-200,000	-0,029	-0,330
1178,701	-75,915	-0,305	-0,081
1179,716	193,215	-0,137	-0,157
1180,730	133,172	0,272	-0,266
1181,745	-200,000	0,044	0,402
1182,759	-200,000	-0,019	0,341
1183,774	553,979	-0,111	-0,204
1184,788	40,295	-0,419	0,286
1185,803	-200,000	-0,030	-0,501
1186,818	115,411	-0,112	-0,103
1187,832	215,174	-0,215	-0,259
1188,847	-200,000	0,042	0,180
1189,861	-75,710	-0,266	-0,071
1190,876	-2,016	-0,250	0,133
1191,891	-200,000	-0,072	-0,375
1192,905	-112,549	0,256	-0,038
1193,920	-193,492	0,196	-0,001
1194,934	-200,000	-0,090	-0,327
1195,949	700,000	-0,071	-0,190
1196,964	-133,909	-0,094	0,009
1197,978	-73,825	-0,479	-0,131
1198,993	-200,000	-0,056	0,195
1200,007	700,000	-0,163	-0,378
1201,022	-200,000	-0,055	0,459
1202,037	662,170	0,058	0,114
1203,051	-43,124	-0,235	-0,090
1204,066	-200,000	-0,034	-0,142
1205,080	-200,000	-0,094	0,363
1206,095	0,004	-0,302	0,162
1207,110	432,679	0,256	0,422
1208,124	700,000	-0,147	-0,345
1209,139	288,509	-0,159	0,218
1210,153	336,472	0,116	-0,171
1211,168	-136,602	0,193	-0,017
1212,183	-200,000	0,006	-0,270
1213,197	-31,497	-0,125	-0,053
1214,212	700,000	0,063	-0,140
1215,226	-200,000	0,029	-0,241
1216,241	-74,107	-0,438	0,119
1217,256	700,000	-0,148	0,324
1218,270	700,000	-0,057	-0,154
1219,285	-200,000	0,027	-0,258
1220,299	-200,000	-0,043	0,304
1221,314	221,914	-0,196	0,238
1222,328	453,845	0,089	-0,149
1223,343	700,000	0,103	0,244
1224,358	6,035	-0,457	-0,255
1225,372	543,086	0,105	0,190
1226,387	-200,000	0,082	0,302
1227,401	700,000	-0,047	-0,095
1228,416	-6,194	-0,172	0,089
1229,431	30,487	0,274	0,177
1230,445	19,650	0,390	0,237
1231,460	202,613	-0,213	0,249
1232,474	93,157	-0,172	-0,147
1233,489	78,079	0,178	-0,144
1234,504	700,000	-0,257	-0,605
1235,518	112,791	-0,116	0,106
1236,533	677,587	-0,066	0,129
1237,547	700,000	-0,187	0,528
1238,562	-99,783	-0,246	0,046
1239,577	123,346	-0,095	0,090
1240,591	-200,000	0,056	0,305
1241,606	-200,000	0,149	-0,549
1242,620	153,160	-0,053	-0,055
1243,635	-200,000	-0,073	0,252
1244,650	700,000	0,058	-0,158
1245,664	700,000	-0,171	-0,490
1246,679	129,539	-0,250	-0,241
1247,693	700,000	0,128	-0,291
1248,708	-200,000	0,123	-0,729
1249,723	241,086	-0,234	0,295
1250,737	-47,059	-0,471	-0,173
1251,752	-200,000	0,067	-0,548
1252,766	-200,000	-0,117	0,400
1253,781	126,909	-0,416	-0,398
1254,796	88,375	-0,276	0,231
1255,810	700,000	-0,119	0,245
1256,825	-122,182	-0,176	0,021
1257,839	-107,182	-0,572	0,094
1258,854	-7,932	-0,382	-0,194
1259,868	-200,000	-0,050	-0,250
1260,883	-200,000	0,087	0,572
1261,898	-164,289	-0,191	0,007
1262,912	-106,678	-0,301	-0,050
1263,927	700,000	0,118	0,358
1264,941	-200,000	-0,051	0,626
1265,956	493,653	-0,197	0,342
1266,971	12,932	0,129	-0,075
1267,985	477,669	0,084	0,144
1269,000	316,324	0,085	-0,122
1270,014	-200,000	-0,151	0,637
1271,029	-200,000	0,075	-0,493
1272,044	-200,000	0,067	0,530
1273,058	187,125	-0,174	-0,196
1274,073	700,000	-0,168	0,540
1275,087	85,641	-0,111	-0,092
1276,102	-151,161	0,044	0,002
1277,117	-200,000	0,004	-0,259
1278,131	-200,000	-0,056	-0,252
1279,146	-168,720	-0,312	-0,009
1280,160	586,845	-0,252	0,470
1281,175	42,540	-0,163	-0,111
1282,190	-97,851	-0,225	-0,043
1283,204	-60,855	-0,239	-0,076
1284,219	136,286	0,144	-0,142
1285,233	700,000	0,159	-0,399
1286,248	-200,000	-0,081	-0,365
1287,263	-135,124	-0,044	-0,004
1288,277	-200,000	-0,047	-0,319
1289,292	700,000	-0,132	-0,339
1290,306	-200,000	-0,018	0,115
1291,321	44,066	-0,271	-0,187
1292,336	-200,000	0,141	0,479
1293,350	353,009	-0,275	-0,411
1294,365	35,400	-0,305	-0,201
1295,379	-75,660	-0,356	-0,095
1296,394	-200,000	-0,110	0,872
1297,409	-200,000	-0,018	0,387
1298,423	-200,000	0,107	0,465
1299,438	142,166	-0,025	0,025
1300,452	83,469	0,139	0,114
1301,467	700,000	0,122	-0,260
1302,481	-3,965	0,133	0,069
1303,496	-200,000	-0,000	-0,258
1304,511	166,631	0,457	-0,488
1305,525	-15,679	0,102	0,049
1306,540	-59,412	0,196	0,063
1307,554	73,672	0,176	0,139
1308,569	-200,000	0,022	-0,101
1309,584	221,563	-0,317	0,383
1310,598	668,713	-0,218	-0,426
1311,613	-147,018	-0,284	0,018
1312,627	-54,251	-0,427	-0,145
1313,642	-114,900	-0,222	0,031
1314,657	-200,000	0,006	0,270
1315,671	89,520	0,370	-0,310
1316,686	700,000	-0,012	-0,033
1317,700	43,135	-0,024	-0,016
1318,715	-144,760	0,074	-0,005
1319,730	-70,595	-0,232	0,066
1320,744	-200,000	0,019	-0,075
1321,759	-5,688	0,200	0,103
1322,773	-150,426	0,147	0,008
1323,788	-200,000	-0,044	-0,462
1324,803	-200,000	-0,092	0,351
1325,817	700,000	-0,139	-0,323
1326,832	700,000	-0,275	-0,561
1327,846	-200,000	0,064	-0,455
1328,861	-200,000	-0,052	-0,206
1329,876	-153,215	-0,083	0,004
1330,890	-32,428	0,133	0,056
1331,905	-200,000	-0,024	-0,456
1332,919	-22,735	-0,378	0,171
1333,934	-56,264	-0,286	-0,095
1334,949	-200,000	0,013	0,354
1335,963	700,000	-0,190	-0,480
1336,978	233,044	-0,487	0,602
1337,992	-200,000	-0,083	-0,352
1339,007	-53,482	-0,306	-0,104
1340,021	-141,924	-0,431	-0,032
1341,036	-200,000	0,063	0,251
1342,051	-200,000	0,005	-0,034
1343,065	589,820	-0,296	0,550
1344,080	-119,485	-0,099	0,013
1345,094	-186,715	-0,297	-0,003
1346,109	-119,530	-0,241	0,031
1347,124	-200,000	0,020	0,390
1348,138	700,000	-0,253	-0,522
1349,153	312,935	-0,324	0,458
1350,167	-200,000	-0,102	0,399
