DTS Sentinel unit serial number:	SN409017Multiplexer serial number:	ORYXHardware model number:	OX4Software version number:	ORYX F/W v1,02 Oryx Data Collector v3.7.1.3data status	okinstallation	speulderbos2017nov21differential loss correction	single-endedforward channel	channel 1reverse channel	N/Adate	2018/01/07time	20:23:19forward acquisition time	30,00reverse acquisition time	0,00gamma	498,7988k internal	0,2786k external	0,2786temperature offset calibration	1,0000default loss term (dB/km)	0,3730temperature slope calibration	0,7000multiplexer offset coefficient	1,0000multiplexer slope coefficient	1,0000fibre end	0,00T internal ref (°C)	15,34T ext. ref 1 (°C)	3,07T ext. ref 2 (°C)	1258,77length (m)	temperature (°C)	Stokes	anti-Stokes-747,000	-57,719	0,261	-0,095
-745,985	217,253	-0,268	-0,358
-744,971	-200,000	0,074	-0,625
-743,956	182,032	-0,395	-0,487
-742,942	19,439	0,381	0,256
-741,927	-141,977	-0,615	-0,051
-740,912	-200,000	0,061	-0,328
-739,898	5,821	-0,348	-0,215
-738,883	-148,642	0,535	0,036
-737,869	-116,648	-0,683	0,104
-736,854	192,378	0,118	0,150
-735,839	-22,689	-0,706	-0,356
-734,825	275,524	0,236	0,351
-733,810	187,863	0,169	0,211
-732,796	49,355	-0,142	-0,111
-731,781	-52,990	-0,519	0,199
-730,766	-200,000	0,006	-0,251
-729,752	-200,000	-0,038	-0,147
-728,737	-200,000	-0,126	-0,503
-727,723	418,588	-0,078	0,141
-726,708	-58,366	-0,147	0,053
-725,694	-43,119	-0,142	-0,060
-724,679	-0,780	0,236	0,139
-723,664	-200,000	0,085	0,484
-722,650	-181,432	0,751	-0,012
-721,635	211,641	0,358	0,472
-720,621	266,983	-0,016	-0,023
-719,606	-148,906	-0,573	-0,038
-718,591	98,066	-0,283	0,272
-717,577	-129,563	-0,385	-0,044
-716,562	-67,185	0,214	0,070
-715,548	700,000	0,171	-0,456
-714,533	-200,000	-0,017	-0,218
-713,518	51,533	-0,159	-0,126
-712,504	700,000	-0,032	0,100
-711,489	313,479	-0,254	0,399
-710,475	-41,656	-0,328	-0,140
-709,460	700,000	0,033	0,098
-708,445	277,041	-0,141	0,210
-707,431	-200,000	0,033	-0,707
-706,416	-93,395	-0,291	0,067
-705,402	400,694	-0,207	-0,363
-704,387	-200,000	-0,018	0,220
-703,372	700,000	0,054	0,168
-702,358	-200,000	-0,106	0,593
-701,343	-130,056	0,338	0,038
-700,329	319,459	0,087	-0,138
-699,314	-18,054	0,284	0,148
-698,299	26,440	0,689	-0,480
-697,285	-200,000	0,038	-0,174
-696,270	-51,724	0,241	-0,093
-695,256	-22,415	0,212	-0,107
-694,241	632,737	0,104	0,222
-693,226	509,196	0,074	0,145
-692,212	-81,104	-0,570	-0,156
-691,197	-1,640	0,377	-0,221
-690,183	700,000	0,025	0,090
-689,168	-105,084	-0,240	-0,045
-688,154	-99,198	-0,525	-0,110
-687,139	-200,000	0,022	0,232
-686,124	54,334	-0,311	-0,250
-685,110	-154,614	-0,214	0,012
-684,095	55,134	0,134	0,108
-683,081	52,896	-0,097	-0,077
-682,066	172,968	-0,389	-0,467
-681,051	-100,188	-0,226	0,046
-680,037	-200,000	0,115	-0,565
-679,022	147,211	-0,289	0,324
-678,008	-200,000	-0,088	0,356
-676,993	700,000	-0,235	-0,531
-675,978	171,348	-0,528	-0,632
-674,964	325,301	-0,312	0,498
-673,949	-98,315	-0,594	0,126
-672,935	700,000	-0,083	-0,287
-671,920	-200,000	-0,027	0,567
-670,905	-97,332	-0,144	0,031
-669,891	700,000	-0,148	-0,361
-668,876	-159,723	-0,229	0,010
-667,862	-180,361	-0,077	0,001
-666,847	255,671	-0,235	0,336
-665,832	-74,649	-0,198	-0,059
-664,818	-200,000	-0,021	-0,216
-663,803	113,072	0,483	0,488
-662,789	39,802	0,243	-0,182
-661,774	403,050	-0,290	-0,510
-660,759	700,000	0,177	0,394
-659,745	700,000	-0,051	0,143
-658,730	-200,000	-0,103	0,917
-657,716	74,068	0,324	0,283
-656,701	700,000	0,133	-0,429
-655,686	-175,506	-0,405	-0,009
-654,672	-133,101	-0,062	-0,007
-653,657	700,000	0,209	-0,470
-652,643	-200,000	0,021	-0,307
-651,628	-200,000	-0,048	-0,481
-650,613	700,000	-0,097	-0,269
-649,599	700,000	-0,088	-0,198
-648,584	-200,000	-0,018	0,266
-647,570	288,666	-0,102	-0,155
-646,555	700,000	0,050	-0,142
-645,541	-9,303	0,364	-0,202
-644,526	344,597	-0,106	0,174
-643,511	115,514	0,334	0,340
-642,497	700,000	0,025	0,064
-641,482	-200,000	-0,061	-0,369
-640,468	138,184	0,254	-0,278
-639,453	-23,679	-0,407	-0,203
-638,438	-183,713	-0,192	-0,003
-637,424	-67,169	-0,382	-0,125
-636,409	-96,350	-0,317	0,069
-635,395	-53,622	0,096	0,037
-634,380	-89,182	-0,559	-0,137
-633,365	442,171	0,146	-0,267
-632,351	-139,125	-0,192	-0,017
-631,336	-200,000	-0,001	-0,102
-630,322	417,742	0,353	0,630
-629,307	-90,603	0,372	0,089
-628,292	-72,252	0,187	0,057
-627,278	-38,610	-0,561	-0,245
-626,263	111,640	-0,606	-0,609
-625,249	-200,000	-0,029	-0,280
-624,234	-60,102	-0,336	0,119
-623,219	90,363	-0,091	-0,085
-622,205	700,000	-0,130	-0,384
-621,190	-200,000	-0,199	0,760
-620,176	-80,490	-0,268	-0,074
-619,161	-200,000	-0,021	-0,083
-618,146	700,000	0,125	0,315
-617,132	-200,000	0,058	-0,488
-616,117	-51,357	-0,446	0,173
-615,103	700,000	0,218	-0,491
-614,088	700,000	-0,012	-0,031
-613,073	-104,686	0,211	0,040
-612,059	351,225	0,110	0,182
-611,044	-200,000	-0,064	0,447
-610,030	-23,490	0,187	0,093
-609,015	700,000	0,100	0,294
-608,001	-29,719	0,231	0,109
-606,986	-200,000	-0,041	0,763
-605,971	-200,000	0,021	-0,369
-604,957	-36,997	0,304	0,135
-603,942	-70,889	-0,211	0,066
-602,928	43,997	-0,311	-0,237
-601,913	-48,834	0,356	-0,141
-600,898	-123,632	0,281	-0,037
-599,884	-71,645	-0,342	-0,106
-598,869	-47,734	0,470	0,189
-597,855	-130,138	-0,300	-0,034
-596,840	490,938	-0,293	-0,560
-595,825	-92,670	-0,285	-0,066
-594,811	700,000	-0,167	0,424
-593,796	31,274	0,342	0,244
-592,782	-64,239	-0,300	-0,101
-591,767	-200,000	-0,032	0,176
-590,752	670,029	0,197	0,427
-589,738	-46,584	-0,391	0,158
-588,723	-2,630	-0,028	0,016
-587,709	326,953	-0,210	-0,336
-586,694	95,787	-0,273	-0,259
-585,679	-200,000	-0,038	-0,370
-584,665	-69,952	-0,589	0,186
-583,650	700,000	0,061	0,206
-582,636	-14,232	0,432	-0,231
-581,621	-200,000	0,025	0,188
-580,606	55,173	0,284	0,228
-579,592	631,423	0,069	0,145
-578,577	513,259	-0,141	0,275
-577,563	-15,150	-0,479	0,254
-576,548	135,110	0,101	0,109
-575,533	150,483	-0,302	-0,341
-574,519	114,539	0,043	0,043
-573,504	119,135	0,067	-0,068
-572,490	700,000	-0,105	0,259
-571,475	273,581	0,537	-0,791
-570,461	244,546	-0,443	-0,619
-569,446	-101,864	0,484	-0,096
-568,431	36,227	0,342	-0,250
-567,417	-59,791	-0,026	0,009
-566,402	-105,567	0,581	-0,108
-565,388	21,544	-0,214	-0,144
-564,373	-200,000	-0,019	0,352
-563,358	-8,585	-0,460	0,256
-562,344	-200,000	-0,053	0,465
-561,329	92,680	0,075	-0,070
-560,315	34,742	-0,372	0,270
-559,300	7,988	-0,180	0,112
-558,285	372,949	0,161	-0,272
-557,271	137,626	0,111	-0,121
-556,256	-200,000	-0,009	0,237
-555,242	-200,000	-0,025	0,110
-554,227	313,283	-0,043	0,067
-553,212	167,278	0,156	-0,184
-552,198	-132,146	0,275	-0,029
-551,183	36,277	-0,163	0,119
-550,169	2,952	0,467	0,281
-549,154	266,388	-0,063	-0,092
-548,139	-84,997	0,135	0,035
-547,125	140,829	0,440	-0,483
-546,110	117,254	-0,219	-0,224
-545,096	-78,681	-0,096	0,027
-544,081	225,794	-0,305	-0,411
-543,066	-47,367	0,405	0,163
-542,052	-133,229	-0,394	-0,041
-541,037	-200,000	-0,110	0,413
-540,023	-91,260	-0,276	0,065
-539,008	-171,687	-0,052	0,001
-537,993	86,700	0,233	0,214
-536,979	148,257	0,170	0,190
-535,964	-200,000	-0,004	0,084
-534,950	16,899	0,387	-0,254
-533,935	324,497	0,299	0,475
-532,920	-37,092	-0,294	-0,130
-531,906	-95,259	-0,340	-0,075
-530,891	103,264	0,358	0,348
-529,877	379,117	-0,060	0,101
-528,862	22,791	-0,343	0,233
-527,848	-200,000	0,116	0,432
-526,833	77,147	-0,391	0,344
-525,818	700,000	-0,095	0,330
-524,804	-200,000	0,032	-0,488
-523,789	-131,163	0,217	0,024
-522,775	700,000	-0,053	-0,170
-521,760	-151,358	0,251	-0,015
-520,745	87,511	0,493	0,452
-519,731	-200,000	0,028	0,106
-518,716	700,000	-0,019	0,050
-517,702	700,000	-0,133	0,328
-516,687	700,000	-0,085	0,262
-515,672	-21,558	-0,249	-0,126
-514,658	700,000	0,221	-0,569
-513,643	-158,809	0,477	-0,022
-512,629	-69,934	-0,097	0,031
-511,614	152,072	0,188	0,213
-510,599	-72,866	-0,412	0,125
-509,585	-106,233	-0,222	-0,041
-508,570	-200,000	-0,050	0,362
-507,556	-200,000	-0,108	-0,598
-506,541	37,654	0,655	0,481
-505,526	381,365	0,138	-0,235
-504,512	-200,000	-0,137	0,585
-503,497	-200,000	-0,032	-0,170
-502,483	-132,737	-0,200	0,021
-501,468	304,901	-0,114	0,176
-500,453	700,000	0,146	0,496
-499,439	700,000	0,229	0,578
-498,424	700,000	0,357	1,019
-497,410	637,589	-0,153	-0,323
-496,395	-11,784	-0,376	-0,204
-495,380	700,000	0,049	0,113
-494,366	700,000	-0,236	-0,562
-493,351	600,356	-0,087	0,179
-492,337	-200,000	-0,004	0,244
-491,322	-4,477	-0,338	0,193
-490,308	-200,000	0,050	-0,300
-489,293	-71,058	0,133	0,041
-488,278	8,505	-0,372	-0,231
-487,264	401,901	0,084	0,146
-486,249	700,000	0,066	-0,155
-485,235	-160,047	-0,264	-0,012
-484,220	-200,000	0,055	-0,312
-483,205	-137,598	0,738	0,068
-482,191	-168,002	0,342	0,011
-481,176	3,282	-0,175	-0,105
-480,162	-87,302	-0,220	-0,055
-479,147	-9,205	-0,277	-0,153
-478,132	116,995	-0,045	0,046
-477,118	-117,867	-0,185	0,027
-476,103	-114,145	0,293	-0,046
-475,089	168,160	-0,135	0,159
-474,074	110,666	-0,244	-0,243
-473,059	700,000	0,038	0,120
-472,045	700,000	0,047	-0,157
-471,030	-200,000	-0,064	-0,504
-470,016	53,589	-0,163	0,129
-469,001	281,611	0,330	-0,490
-467,986	700,000	0,017	-0,042
-466,972	700,000	-0,163	-0,383
-465,957	700,000	-0,188	-0,469
-464,943	700,000	0,065	0,222
-463,928	-60,118	0,601	0,211
-462,913	234,629	-0,381	-0,521
-461,899	-58,022	0,074	-0,027
-460,884	13,179	-0,284	-0,182
-459,870	122,291	0,516	0,533
-458,855	-118,457	-0,512	-0,074
-457,840	-50,056	0,114	0,045
-456,826	700,000	-0,119	-0,287
-455,811	700,000	0,081	-0,192
-454,797	-200,000	0,011	-0,304
-453,782	48,311	-0,279	-0,216
-452,768	88,392	0,266	0,244
-451,753	-200,000	-0,009	0,193
-450,738	-35,690	-0,631	-0,282
-449,724	-73,472	0,152	-0,046
-448,709	-76,270	-0,301	-0,087
-447,695	306,457	0,280	0,432
-446,680	700,000	0,176	0,448
-445,665	3,671	-0,300	0,180
-444,651	-200,000	0,022	-0,142
-443,636	242,314	-0,108	-0,150
-442,622	-150,762	0,183	0,011
-441,607	-200,000	-0,051	-0,319
-440,592	-115,536	0,126	0,019
-439,578	-200,000	0,018	-0,148
-438,563	-200,000	-0,042	-0,337
-437,549	67,827	0,180	-0,152
-436,534	163,648	0,106	-0,123
-435,519	-101,253	0,339	-0,068
-434,505	-16,868	-0,449	0,234
-433,490	-200,000	-0,022	0,131
-432,476	-131,906	0,248	-0,026
-431,461	345,005	0,265	0,432
-430,446	60,281	0,117	0,096
-429,432	-116,750	0,674	0,101
-428,417	-63,383	-0,436	0,148
-427,403	700,000	-0,063	0,172
-426,388	-200,000	0,061	-0,242
-425,373	-174,431	-0,570	0,013
-424,359	258,582	-0,299	-0,427
-423,344	-65,021	0,659	-0,219
-422,330	303,764	0,344	-0,528
-421,315	-200,000	0,030	-0,188
-420,300	-165,812	0,461	0,016
-419,286	700,000	0,030	-0,103
-418,271	-200,000	0,011	-0,156
-417,257	-1,904	0,322	0,186
-416,242	17,108	-0,288	0,188
-415,228	-161,180	0,516	0,022
-414,213	155,687	-0,397	-0,452
-413,198	-40,033	-0,496	0,212
-412,184	700,000	0,111	0,345
-411,169	-200,000	-0,002	-0,085
-410,155	248,169	0,188	-0,264
-409,140	496,895	-0,238	-0,453
-408,125	117,581	-0,123	0,125
-407,111	-72,057	0,311	0,095
-406,096	700,000	-0,020	0,066
-405,082	-128,207	0,439	-0,051
-404,067	-200,000	-0,038	-0,158
-403,052	-200,000	0,004	0,542
-402,038	700,000	-0,288	-0,846
-401,023	370,645	-0,145	-0,243
-400,009	431,151	0,359	0,644
-398,994	327,325	-0,142	0,225
-397,979	-33,021	-0,068	0,031
-396,965	1,431	0,064	0,038
-395,950	700,000	0,067	0,156
-394,936	45,987	0,270	0,206
-393,921	700,000	-0,284	-0,630
-392,906	505,228	-0,218	-0,419
-391,892	26,292	-0,202	0,139
-390,877	8,351	0,109	-0,067
-389,863	347,103	0,155	-0,253
-388,848	398,808	-0,159	0,275
-387,833	12,274	-0,271	0,172
-386,819	92,581	-0,185	-0,172
-385,804	81,183	0,277	-0,247
-384,790	7,153	-0,245	-0,151
-383,775	18,948	-0,362	-0,239
-382,760	-87,718	-0,133	0,033
-381,746	-11,304	0,518	-0,280
-380,731	186,060	0,181	-0,222
-379,717	-200,000	0,023	0,249
-378,702	-5,674	-0,276	0,156
-377,687	347,470	-0,486	0,791
-376,673	-97,235	0,217	-0,046
-375,658	700,000	0,041	0,091
-374,644	520,261	0,130	0,251
-373,629	-107,717	-0,337	0,060
-372,615	274,596	-0,078	0,114
-371,600	-200,000	0,138	0,924
-370,585	-199,153	0,302	0,001
-369,571	237,521	0,095	-0,130
-368,556	-95,361	0,542	0,119
-367,542	-200,000	0,007	0,081
-366,527	-89,336	-0,392	-0,095
-365,512	65,577	0,189	-0,158
-364,498	-200,000	0,042	0,293
-363,483	700,000	0,217	0,477
-362,469	24,444	-0,307	0,208
-361,454	110,295	-0,278	0,275
-360,439	-36,778	0,100	-0,044
-359,425	-65,643	0,264	0,087
-358,410	426,235	0,164	0,293
-357,396	-111,388	0,179	0,030
-356,381	34,449	-0,286	-0,205
-355,366	-200,000	0,070	-0,535
-354,352	-32,319	0,279	0,128
-353,337	-137,182	-0,205	0,019
-352,323	-76,447	-0,350	0,101
-351,308	327,082	-0,170	0,269
-350,293	322,071	-0,191	-0,301
-349,279	-200,000	0,006	0,089
-348,264	-76,071	-0,285	-0,082
-347,250	-100,689	0,404	0,081
-346,235	5,133	0,547	-0,331
-345,220	2,601	0,138	-0,082
-344,206	204,928	-0,213	0,273
-343,191	700,000	0,107	0,293
-342,177	-35,736	0,186	-0,083
-341,162	-200,000	-0,046	-0,318
-340,147	-200,000	-0,008	0,417
-339,133	91,167	-0,174	-0,160
-338,118	95,048	-0,283	0,265
-337,104	453,586	-0,193	0,352
-336,089	529,037	-0,148	-0,288
-335,075	-64,008	0,361	0,121
-334,060	-94,320	-0,364	-0,081
-333,045	220,013	-0,158	-0,209
-332,031	-30,563	0,230	-0,107
-331,016	626,846	-0,145	-0,302
-330,002	-200,000	-0,026	0,118
-328,987	-85,168	-0,461	-0,118
-327,972	700,000	-0,187	-0,416
-326,958	-42,699	0,413	-0,172
-325,943	-44,669	-0,247	-0,101
-324,929	492,852	0,062	-0,116
-323,914	700,000	-0,238	0,569
-322,899	-200,000	0,063	0,527
-321,885	219,398	-0,197	-0,260
-320,870	77,410	-0,413	-0,361
-319,856	18,818	0,534	-0,351
-318,841	-163,586	0,222	0,008
-317,826	-83,019	0,902	0,238
-316,812	474,086	-0,055	0,103
-315,797	7,657	-0,177	0,109
-314,783	-200,000	-0,069	0,298
-313,768	483,153	0,137	-0,257
-312,753	-67,522	0,409	0,131
-311,739	19,428	0,178	0,117
-310,724	-200,000	0,030	-0,132
-309,710	225,078	0,175	-0,234
-308,695	174,647	0,327	0,390
-307,680	95,616	-0,305	-0,286
-306,666	-83,635	0,276	0,072
-305,651	-200,000	-0,002	-0,352
-304,637	700,000	0,061	-0,207
-303,622	700,000	-0,123	-0,394
-302,607	15,528	-0,301	-0,194
-301,593	-22,318	0,218	0,108
-300,578	-200,000	0,038	-0,219
-299,564	450,638	-0,242	0,440
-298,549	74,242	0,159	0,137
-297,535	477,153	-0,052	0,096
-296,520	347,993	0,232	-0,377
-295,505	-138,033	0,473	-0,043
-294,491	147,003	-0,044	0,049
-293,476	127,680	-0,125	-0,131
-292,462	-137,672	-0,171	-0,016
-291,447	221,340	0,103	-0,136
-290,432	-75,740	-0,110	0,032
-289,418	-86,256	-0,420	-0,106
-288,403	3,575	-0,259	0,155
-287,389	17,264	0,345	0,224
-286,374	58,395	-0,332	0,267
-285,359	-98,488	0,070	0,015
-284,345	-200,000	-0,127	-0,479
-283,330	-200,000	0,044	-0,163
-282,316	-200,000	-0,081	-0,404
-281,301	-121,761	-0,434	0,058
-280,286	-200,000	-0,037	-0,157
-279,272	267,796	0,262	-0,377
-278,257	-100,663	-0,016	-0,003
-277,243	-157,087	-0,187	-0,009
-276,228	-137,927	0,182	-0,017
-275,213	-61,611	-0,564	0,193
-274,199	0,931	0,446	0,262
-273,184	40,274	0,641	0,472
-272,170	-22,923	-0,284	0,140
-271,155	311,673	-0,205	-0,316
-270,140	21,365	0,431	0,287
-269,126	11,506	-0,416	-0,261
-268,111	-6,043	-0,274	0,153
-267,097	-200,000	-0,011	0,056
-266,082	213,628	0,231	0,300
-265,067	-40,822	0,167	0,071
-264,053	-85,315	0,479	-0,122
-263,038	-30,632	-0,241	0,112
-262,024	205,435	0,184	-0,235
-261,009	-151,110	0,291	0,018
-259,994	-23,409	0,376	-0,185
-258,980	612,770	0,175	-0,361
-257,965	8,124	0,153	-0,094
-256,951	-200,000	-0,017	-0,386
-255,936	700,000	-0,153	0,452
-254,922	169,420	0,407	0,478
-253,907	-200,000	-0,100	0,407
-252,892	41,021	0,071	0,053
-251,878	-32,615	-0,507	-0,231
-250,863	-25,898	0,235	0,113
-249,849	-200,000	-0,047	-0,281
-248,834	121,863	-0,107	-0,109
-247,819	-77,857	-0,159	-0,045
-246,805	-200,000	0,010	-0,526
-245,790	-67,052	0,421	-0,136
-244,776	617,713	0,019	-0,038
-243,761	56,969	-0,561	-0,448
-242,746	-153,344	0,329	0,018
-241,732	-99,168	-0,440	-0,091
-240,717	700,000	0,048	-0,162
-239,703	135,911	0,485	-0,519
-238,688	383,852	0,068	-0,114
-237,673	11,201	0,333	-0,208
-236,659	264,218	-0,113	-0,162
-235,644	-49,182	-0,357	-0,139
-234,630	-82,358	-0,197	-0,052
-233,615	475,467	-0,074	-0,138
-232,600	435,824	0,143	0,256
-231,586	-8,998	-0,166	0,091
-230,571	700,000	0,170	0,588
-229,557	82,924	0,386	0,344
-228,542	700,000	-0,086	-0,253
-227,527	-200,000	-0,039	0,249
-226,513	4,279	-0,074	-0,044
-225,498	18,585	0,203	0,133
-224,484	-110,904	-0,445	0,074
-223,469	-200,000	0,032	-0,631
-222,454	174,638	-0,282	0,335
-221,440	700,000	-0,123	-0,322
-220,425	260,524	0,257	-0,365
-219,411	593,263	0,021	0,044
-218,396	300,444	-0,356	-0,540
-217,382	-159,567	0,264	-0,012
-216,367	-127,302	0,694	-0,082
-215,352	29,628	-0,073	-0,051
-214,338	170,101	0,087	-0,102
-213,323	173,059	0,264	-0,313
-212,309	700,000	0,030	-0,066
-211,294	108,320	-0,296	0,289
-210,279	-89,352	-0,319	0,076
-209,265	-70,387	0,080	0,025
-208,250	100,460	0,363	0,345
-207,236	-76,302	0,815	-0,234
-206,221	700,000	-0,032	0,075
-205,206	347,549	-0,332	0,537
-204,192	68,935	-0,276	-0,232
-203,177	281,886	-0,106	0,156
-202,163	5,979	-0,072	-0,044
-201,148	-2,242	0,398	0,228
-200,133	69,643	-0,164	-0,139
-199,119	-16,835	-0,211	0,109
-198,104	-136,552	-0,104	-0,010
-197,090	-200,000	0,066	0,435
-196,075	-104,366	0,512	-0,096
-195,060	-172,177	0,337	-0,009
-194,046	8,775	-0,115	-0,071
-193,031	700,000	0,166	0,442
-192,017	589,569	0,102	-0,206
-191,002	44,832	-0,338	-0,254
-189,987	-200,000	0,061	-0,331
-188,973	-200,000	0,079	-0,628
-187,958	692,323	0,258	-0,555
-186,944	-200,000	0,027	-0,096
-185,929	10,265	0,140	0,087
-184,914	-200,000	-0,035	-0,292
-183,900	191,116	0,050	0,062
-182,885	457,687	0,187	-0,341
-181,871	700,000	0,041	-0,111
-180,856	121,545	0,172	-0,176
-179,842	700,000	-0,135	0,458
-178,827	700,000	-0,197	0,526
-177,812	341,709	-0,117	0,188
-176,798	-123,173	0,295	0,038
-175,783	-200,000	0,009	0,218
-174,769	-200,000	-0,002	-0,119
-173,754	-200,000	-0,017	0,064
-172,739	-44,824	0,190	0,077
-171,725	90,799	-0,293	0,268
-170,710	64,313	0,199	0,164
-169,696	146,013	-0,194	0,212
-168,681	-88,714	0,319	-0,077
-167,666	117,245	-0,512	-0,515
-166,652	-69,810	-0,171	-0,053
-165,637	-18,285	0,212	0,108
-164,623	-70,433	0,481	-0,148
-163,608	-98,526	-0,553	0,115
-162,593	-200,000	-0,061	0,514
-161,579	-138,438	-0,236	0,021
-160,564	-22,097	-0,398	0,197
-159,550	-200,000	-0,033	0,171
-158,535	-89,746	-0,600	0,143
-157,520	456,907	0,132	0,240
-156,506	51,872	0,340	0,264
-155,491	-30,849	0,355	0,163
-154,477	206,625	-0,256	0,326
-153,462	-200,000	0,017	-0,237
-152,447	69,363	-0,562	0,472
-151,433	-200,000	0,023	0,300
-150,418	-6,734	-0,046	-0,026
-149,404	700,000	-0,215	0,688
-148,389	212,144	0,375	-0,483
-147,374	-200,000	0,045	-0,292
-146,360	97,724	0,166	0,156
-145,345	93,927	0,594	0,550
-144,331	94,068	0,168	-0,155
-143,316	-51,158	0,177	-0,067
-142,302	353,841	-0,093	0,151
-141,287	79,355	0,509	-0,446
-140,272	-58,174	0,496	0,176
-139,258	587,796	-0,155	-0,314
-138,243	-162,641	-0,297	0,012
-137,229	-54,104	0,561	-0,207
-136,214	700,000	0,197	0,543
-135,199	700,000	0,032	-0,115
-134,185	-200,000	-0,061	-0,314
-133,170	-26,659	-0,351	-0,167
-132,156	665,936	0,194	0,411
-131,141	469,926	0,058	0,106
-130,126	-134,295	-0,451	-0,045
-129,112	155,707	0,180	-0,203
-128,097	-19,160	0,208	0,105
-127,083	-200,000	-0,120	0,487
-126,068	-200,000	0,037	0,151
-125,053	-68,042	-0,180	-0,057
-124,039	-70,716	-0,088	0,027
-123,024	16,831	-0,129	0,083
-122,010	-14,993	0,212	0,110
-120,995	-37,047	-0,403	0,175
-119,980	198,025	-0,374	0,467
-118,966	-80,232	-0,526	0,143
-117,951	700,000	-0,123	0,295
-116,937	-50,362	-0,654	0,251
-115,922	-108,395	0,285	0,050
-114,907	236,096	-0,079	-0,106
-113,893	-65,535	0,564	0,184
-112,878	81,631	-0,221	0,195
-111,864	408,745	0,331	0,573
-110,849	700,000	-0,183	0,449
-109,834	700,000	0,094	-0,315
-108,820	377,385	-0,227	0,380
-107,805	-102,142	-0,277	0,054
-106,791	57,117	0,101	0,080
-105,776	-129,538	0,065	-0,007
-104,761	486,029	-0,201	-0,376
-103,747	-67,433	-0,354	-0,113
-102,732	530,144	0,320	0,620
-101,718	106,247	0,229	0,221
-100,703	-106,581	-0,181	0,033
-99,689	-200,000	-0,092	0,544
-98,674	73,620	-0,470	-0,401
-97,659	-47,172	0,295	0,117
-96,645	700,000	0,095	-0,237
-95,630	309,089	0,196	-0,299
-94,616	700,000	-0,065	0,140
-93,601	700,000	0,150	0,381
-92,586	-161,037	0,261	0,011
-91,572	-74,483	0,373	0,109
-90,557	325,288	-0,134	-0,209
-89,543	-44,222	0,308	0,125
-88,528	34,602	-0,325	-0,231
-87,513	-67,197	0,174	-0,056
-86,499	263,548	0,172	-0,245
-85,484	-200,000	0,006	0,038
-84,470	415,370	0,043	-0,076
-83,455	-200,000	-0,126	-0,487
-82,440	-118,240	0,298	0,043
-81,426	700,000	-0,233	-0,665
-80,411	34,185	-0,416	-0,295
-79,397	-200,000	-0,024	0,404
-78,382	-66,106	-0,515	0,166
-77,367	238,317	-0,197	0,267
-76,353	-200,000	-0,031	-0,245
-75,338	126,868	0,155	-0,160
-74,324	617,403	0,320	0,658
-73,309	-200,000	0,025	0,164
-72,294	-105,375	0,415	0,076
-71,280	89,509	0,294	0,267
-70,265	104,204	0,171	0,164
-69,251	-88,968	-0,403	-0,097
-68,236	433,236	-0,105	0,187
-67,221	108,395	-0,251	-0,244
-66,207	1,012	0,378	-0,220
-65,192	-97,033	0,133	-0,028
-64,178	82,047	0,674	-0,594
-63,163	700,000	0,085	-0,202
-62,149	-200,000	0,108	0,470
-61,134	-200,000	-0,051	0,799
-60,119	526,543	-2,056	-3,959
-59,105	46,072	1,361	1,025
-58,090	-7,994	0,517	-0,283
-57,076	525,471	3,458	6,651
-56,061	88,381	59,617	53,889
-55,046	431,109	1147,639	2030,069
-54,032	302,979	2184,269	3300,552
-53,017	99,343	2003,402	1885,717
-52,003	30,807	1752,791	1219,812
-50,988	22,015	1551,015	1027,860
-49,973	17,347	1481,840	955,670
-48,959	16,155	1463,401	937,087
-47,944	15,584	1458,724	930,878
-46,930	15,505	1455,353	928,248
-45,915	15,508	1451,930	926,045
-44,900	15,311	1449,561	923,409
-43,886	15,454	1445,875	921,811
-42,871	15,475	1444,374	920,935
-41,857	15,444	1442,714	919,670
-40,842	15,577	1441,266	919,442
-39,827	15,344	1439,583	917,048
-38,813	15,324	1438,880	916,458
-37,798	15,347	1436,848	915,250
-36,784	15,186	1436,101	913,858
-35,769	15,508	1433,660	914,028
-34,754	15,434	1431,725	912,355
-33,740	15,445	1430,548	911,631
-32,725	15,528	1429,925	911,652
-31,711	15,569	1428,018	910,619
-30,696	15,425	1426,793	909,019
-29,681	15,386	1425,705	908,079
-28,667	15,388	1423,938	906,925
-27,652	15,523	1422,325	906,598
-26,638	15,347	1421,634	905,166
-25,623	15,280	1420,249	903,884
-24,609	15,213	1418,871	902,609
-23,594	15,215	1418,015	902,039
-22,579	15,483	1416,329	902,380
-21,565	15,455	1415,478	901,652
-20,550	15,432	1413,938	900,511
-19,536	15,531	1412,630	900,171
-18,521	15,242	1413,044	898,843
-17,506	15,288	1411,568	898,120
-16,492	15,340	1410,419	897,631
-15,477	15,382	1409,416	897,181
-14,463	15,261	1408,458	895,887
-13,448	15,390	1406,686	895,417
-12,433	15,339	1405,646	894,446
-11,419	15,137	1406,346	893,772
-10,404	15,170	1403,679	892,216
-9,390	15,086	1403,583	891,671
-8,375	15,209	1402,556	891,644
-7,360	15,173	1401,135	890,513
-6,346	15,368	1399,870	890,711
-5,331	15,303	1398,736	889,611
-4,317	15,180	1397,633	888,215
-3,302	15,095	1397,209	887,462
-2,287	15,085	1395,951	886,571
-1,273	15,271	1395,576	887,287
-0,258	14,535	1397,619	884,628
0,756	11,758	1360,298	847,855
1,771	6,487	1293,515	780,014
2,786	3,352	1265,788	747,965
3,800	2,532	1258,471	739,615
4,815	1,939	1253,180	733,594
5,829	0,797	1249,442	725,857
6,844	0,723	1247,148	724,122
7,859	0,612	1244,977	722,286
8,873	0,522	1242,622	720,442
9,888	0,814	1240,296	720,448
10,902	0,663	1238,323	718,538
11,917	0,392	1237,912	716,959
12,931	0,467	1235,140	715,666
13,946	0,497	1233,101	714,586
14,961	0,635	1231,641	714,354
15,975	0,647	1229,526	713,139
16,990	0,707	1228,014	712,502
18,004	0,825	1225,530	711,577
19,019	0,623	1224,353	709,895
20,034	0,624	1222,746	708,922
21,048	0,508	1222,001	707,900
22,063	0,790	1219,096	707,504
23,077	0,652	1217,925	706,129
24,092	0,652	1216,290	705,141
25,107	0,636	1215,092	704,326
26,121	0,772	1212,042	703,153
27,136	0,927	1209,232	702,205
28,150	0,712	1207,683	700,261
29,165	0,906	1204,993	699,557
30,180	1,079	1201,866	698,499
31,194	1,216	1199,371	697,643
32,209	1,100	1195,536	694,833
33,223	1,197	1191,001	692,601
34,238	1,125	1187,720	690,322
35,253	1,265	1184,489	689,042
36,267	1,301	1182,653	688,096
37,282	1,370	1181,383	687,628
38,296	1,211	1180,557	686,385
39,311	1,210	1179,966	685,995
40,326	1,328	1178,062	685,379
41,340	1,312	1176,936	684,609
42,355	1,356	1175,850	684,135
43,369	1,383	1174,961	683,700
44,384	1,309	1173,679	682,577
45,399	1,273	1173,186	682,085
46,413	1,255	1171,741	681,121
47,428	1,339	1170,430	680,698
48,442	1,247	1168,952	679,383
49,457	1,395	1167,470	679,148
50,472	1,411	1166,572	678,654
51,486	1,366	1165,748	677,932
52,501	1,536	1164,209	677,756
53,515	1,331	1163,503	676,387
54,530	1,298	1162,344	675,522
55,544	1,380	1161,524	675,373
56,559	1,519	1161,223	675,779
57,574	1,308	1160,111	674,145
58,588	1,092	1159,260	672,648
59,603	1,247	1158,282	672,730
60,617	1,564	1157,036	673,378
61,632	1,329	1155,631	671,475
62,647	1,450	1155,173	671,705
63,661	1,158	1154,105	669,744
64,676	1,426	1152,558	669,997
65,690	1,390	1149,726	668,147
66,705	1,363	1150,437	668,404
67,720	1,471	1149,129	668,077
68,734	1,430	1148,734	667,626
69,749	1,420	1147,391	666,762
70,763	1,528	1145,685	666,204
71,778	1,508	1144,414	665,339
72,793	1,628	1143,497	665,291
73,807	1,868	1143,504	666,312
74,822	2,970	1143,591	671,162
75,836	4,648	1145,116	679,386
76,851	5,036	1144,476	680,669
77,866	5,186	1143,468	680,684
78,880	5,130	1141,747	679,373
79,895	4,843	1141,631	678,007
80,909	5,037	1139,014	677,258
81,924	4,774	1138,570	675,809
82,939	4,908	1136,360	675,037
83,953	4,547	1135,422	672,870
84,968	3,045	1132,734	664,710
85,982	2,253	1130,129	659,706
86,997	1,835	1128,534	656,925
88,012	1,967	1127,676	656,953
89,026	2,303	1126,314	657,573
90,041	2,000	1125,655	655,839
91,055	1,966	1123,577	654,442
92,070	2,187	1124,170	655,700
93,084	2,366	1124,015	656,343
94,099	2,101	1122,813	654,462
95,114	2,032	1121,253	653,213
96,128	1,957	1119,159	651,633
97,143	1,545	1118,844	649,640
98,157	1,707	1117,820	649,702
99,172	1,801	1115,401	648,657
100,187	1,798	1114,217	647,917
101,201	1,567	1114,192	646,877
102,216	1,607	1112,588	646,077
103,230	1,692	1111,369	645,693
104,245	1,596	1110,240	644,586
105,260	1,557	1109,862	644,162
106,274	1,645	1108,022	643,427
107,289	1,566	1106,779	642,333
108,303	1,701	1105,690	642,235
109,318	1,514	1104,992	640,995
110,333	1,910	1103,961	642,035
111,347	1,333	1103,467	639,267
112,362	1,572	1101,503	639,102
113,376	1,590	1100,820	638,740
114,391	1,699	1099,320	638,290
115,406	1,634	1098,600	637,560
116,420	1,586	1096,891	636,328
117,435	1,478	1096,373	635,533
118,449	1,534	1095,323	635,121
119,464	1,464	1094,484	634,305
120,479	1,356	1093,332	633,145
121,493	1,319	1091,819	632,077
122,508	1,353	1090,458	631,392
123,522	1,190	1090,354	630,613
124,537	1,160	1088,664	629,472
125,552	1,138	1087,986	628,948
126,566	0,953	1086,691	627,392
127,581	0,852	1085,339	626,152
128,595	0,952	1084,538	626,066
129,610	0,839	1082,975	624,659
130,624	0,820	1082,598	624,322
131,639	0,670	1081,037	622,764
132,654	0,994	1079,980	623,456
133,668	0,803	1079,884	622,572
134,683	0,808	1078,811	621,940
135,697	0,987	1077,908	622,117
136,712	0,915	1077,656	621,636
137,727	0,866	1077,201	621,137
138,741	0,881	1076,163	620,562
139,756	1,093	1075,594	621,066
140,770	1,139	1073,882	620,230
141,785	0,818	1073,881	618,874
142,800	1,155	1072,731	619,555
143,814	1,304	1071,528	619,435
144,829	1,366	1070,579	619,104
145,843	1,125	1070,439	617,995
146,858	0,967	1070,057	617,091
147,873	0,956	1069,221	616,527
148,887	1,250	1068,003	616,990
149,902	1,233	1066,499	616,013
150,916	1,113	1065,301	614,792
151,931	1,087	1065,231	614,611
152,946	1,402	1062,676	614,378
153,960	1,185	1062,603	613,417
154,975	1,266	1061,686	613,180
155,989	1,205	1060,602	612,268
157,004	1,069	1060,092	611,384
158,019	0,686	1059,321	609,350
159,033	0,883	1057,415	609,013
160,048	0,957	1055,859	608,378
161,062	0,784	1055,633	607,512
162,077	0,749	1054,777	606,843
163,092	0,686	1054,247	606,249
164,106	0,788	1052,263	605,482
165,121	0,730	1051,415	604,720
166,135	0,954	1050,265	604,923
167,150	1,039	1049,355	604,703
168,165	1,048	1049,479	604,774
169,179	1,044	1048,690	604,267
170,194	1,207	1047,912	604,436
171,208	1,228	1046,574	603,711
172,223	1,386	1046,005	603,977
173,237	1,658	1045,010	604,451
174,252	1,687	1044,337	604,139
175,267	1,434	1043,388	602,548
176,281	1,482	1042,819	602,370
177,296	1,642	1042,309	602,677
178,310	1,553	1041,206	601,649
179,325	1,621	1040,659	601,565
180,340	1,468	1040,091	600,595
181,354	1,400	1039,764	600,100
182,369	1,632	1038,056	599,997
183,383	1,821	1037,178	600,202
184,398	1,644	1037,109	599,424
185,413	1,769	1036,071	599,281
186,427	1,550	1036,017	598,346
187,442	1,531	1034,901	597,591
188,456	1,908	1033,714	598,355
189,471	1,968	1032,787	598,020
190,486	1,917	1031,610	597,100
191,500	1,854	1031,296	596,636
192,515	1,716	1030,904	595,830
193,529	1,855	1030,235	595,953
194,544	1,946	1028,736	595,406
195,559	1,624	1029,699	594,662
196,573	1,998	1027,893	595,049
197,588	2,301	1028,558	596,587
198,602	2,425	1027,787	596,589
199,617	2,016	1026,518	594,216
200,632	2,096	1025,934	594,154
201,646	2,147	1025,347	593,977
202,661	1,944	1024,634	592,734
203,675	2,024	1023,138	592,147
204,690	2,030	1024,095	592,687
205,705	3,204	1025,582	598,098
206,719	4,851	1025,692	604,558
207,734	4,351	1023,801	601,456
208,748	3,062	1021,243	594,909
209,763	3,299	1022,610	596,589
210,777	3,952	1021,262	598,307
211,792	4,279	1017,330	597,230
212,807	4,230	1012,730	594,307
213,821	4,161	1010,521	592,710
214,836	3,795	1008,144	589,873
215,850	2,601	1005,710	583,844
216,865	2,166	1004,605	581,501
217,880	2,993	1005,018	584,869
218,894	4,696	1005,297	591,509
219,909	5,686	1004,435	594,746
220,923	5,620	1004,295	594,374
221,938	5,609	1003,276	593,695
222,953	5,629	1002,729	593,410
223,967	5,694	1001,789	593,064
224,982	5,691	1000,734	592,393
225,996	5,686	1000,236	592,044
227,011	5,663	998,880	591,115
228,026	4,984	996,265	586,965
229,040	3,132	993,392	578,242
230,055	2,161	991,866	573,656
231,069	2,277	989,808	572,865
232,084	2,360	989,035	572,695
233,099	1,922	988,082	570,461
234,113	2,011	987,202	570,253
235,128	2,284	987,246	571,271
236,142	2,738	985,751	572,072
237,157	2,130	984,728	569,166
238,172	2,268	982,482	568,350
239,186	1,937	982,382	567,020
240,201	2,188	980,299	566,718
241,215	2,087	979,888	566,071
242,230	1,940	978,683	564,793
243,245	2,012	977,558	564,375
244,259	1,897	976,221	563,142
245,274	1,715	975,290	561,896
246,288	1,786	974,339	561,579
247,303	1,833	973,320	561,129
248,317	1,721	972,272	560,079
249,332	1,883	970,896	559,851
250,347	1,747	970,441	559,050
251,361	1,866	969,639	558,994
252,376	1,911	968,685	558,577
253,390	1,700	967,002	556,797
254,405	1,425	966,786	555,626
255,420	1,530	966,308	555,705
256,434	1,669	966,059	556,038
257,449	2,130	964,028	556,524
258,463	1,785	963,335	554,827
259,478	1,941	962,500	554,882
260,493	1,991	961,966	554,725
261,507	1,980	960,579	553,850
262,522	2,067	959,675	553,610
263,536	2,042	959,398	553,327
264,551	1,794	957,871	551,510
265,566	1,806	957,288	551,186
266,580	1,970	956,540	551,317
267,595	1,904	955,046	550,181
268,609	1,983	954,943	550,375
269,624	2,053	954,186	550,161
270,639	1,797	953,173	548,617
271,653	1,831	952,538	548,340
272,668	2,066	951,167	548,364
273,682	1,804	950,397	546,941
274,697	1,961	950,060	547,281
275,712	1,965	949,381	546,870
276,726	1,969	948,561	546,381
277,741	2,034	947,681	546,073
278,755	2,101	946,959	545,865
279,770	1,954	946,675	545,141
280,785	2,069	944,893	544,493
281,799	2,080	944,359	544,193
282,814	1,895	943,665	543,095
283,828	2,099	942,389	543,059
284,843	2,206	942,050	543,211
285,857	2,017	940,754	541,756
286,872	2,022	940,543	541,621
287,887	1,839	939,747	540,478
288,901	2,194	938,423	540,947
289,916	2,008	938,269	540,164
290,930	1,982	937,469	539,576
291,945	1,879	937,193	539,020
292,960	2,019	936,651	539,173
293,974	2,049	935,644	538,666
294,989	2,180	934,404	538,381
296,003	2,496	933,932	539,194
297,018	2,707	932,895	539,310
298,033	2,240	932,450	537,370
299,047	1,986	931,415	535,846
300,062	2,334	930,871	536,726
301,076	2,234	930,184	535,947
302,091	2,254	929,484	535,579
303,106	2,448	929,915	536,478
304,120	3,860	932,052	542,661
305,135	5,467	931,272	547,834
306,149	5,788	930,785	548,645
307,164	5,862	930,257	548,560
308,179	5,498	929,847	547,004
309,193	5,595	929,020	546,825
310,208	5,645	928,077	546,412
311,222	5,607	927,572	545,948
312,237	5,438	927,226	545,119
313,252	5,480	925,960	544,490
314,266	5,555	925,518	544,460
315,281	5,776	924,658	544,692
316,295	5,685	923,796	543,833
317,310	5,387	923,015	542,302
318,325	4,481	921,301	538,108
319,339	3,019	918,762	531,512
320,354	2,390	917,680	528,670
321,368	2,318	916,710	527,828
322,383	2,108	917,072	527,275
323,398	2,322	916,183	527,474
324,412	2,044	916,023	526,388
325,427	1,869	915,478	525,436
326,441	2,037	915,110	525,774
327,456	2,104	914,125	525,409
328,470	1,897	914,068	524,626
329,485	2,084	913,491	524,911
330,500	2,063	913,111	524,587
331,514	1,832	912,364	523,328
332,529	2,053	911,723	523,691
333,543	2,027	910,995	523,154
334,558	2,232	910,931	523,792
335,573	3,094	911,791	527,223
336,587	10,682	869,068	527,340
337,602	57,500	500,769	389,688
338,616	121,833	114,036	113,449
339,631	51,700	15,401	11,665
340,646	167,034	1,522	1,724
341,660	-2,256	-0,511	0,285
342,675	-91,738	-0,953	-0,214
343,689	-57,612	-0,738	-0,256
344,704	78,430	-0,963	-0,820
345,719	26,191	-0,880	-0,584
346,733	29,780	-1,270	-0,860
347,748	88,233	-0,705	-0,623
348,762	-89,964	-0,857	-0,198
349,777	-36,635	-1,025	-0,437
350,792	70,722	-0,727	-0,599
351,806	-22,100	-1,055	-0,509
352,821	55,883	-1,260	-0,972
353,835	-48,653	-1,587	-0,604
354,850	-17,099	-1,137	-0,569
355,865	-38,260	-0,427	-0,180
356,879	91,484	-1,233	-1,103
357,894	118,957	-0,849	-0,836
358,908	-99,681	-1,411	-0,280
359,923	56,002	-1,058	-0,817
360,938	61,079	-1,277	-1,008
361,952	-55,948	-1,201	-0,424
362,967	11,843	-0,514	-0,314
363,981	24,609	-1,161	-0,764
364,996	39,731	-1,146	-0,817
366,010	-11,773	-1,189	-0,619
367,025	80,256	-0,814	-0,697
368,040	15,777	-0,936	-0,585
369,054	-11,901	-0,875	-0,455
370,069	-47,934	-0,835	-0,320
371,083	109,388	-0,894	-0,852
372,098	511,945	-0,675	-1,255
373,113	-35,428	-0,857	-0,369
374,127	34,946	-1,591	-1,106
375,142	36,763	-1,145	-0,804
376,156	-54,311	-1,260	-0,452
377,171	31,879	-1,111	-0,760
378,186	98,096	-0,814	-0,745
379,200	-0,121	-0,848	-0,479
380,215	-21,556	-0,663	-0,320
381,229	59,761	-0,985	-0,773
382,244	114,865	-0,812	-0,788
383,259	-26,287	-0,659	-0,306
384,273	-47,275	-0,869	-0,335
385,288	141,977	-1,367	-1,442
386,302	-37,748	-1,207	-0,509
387,317	133,850	-1,066	-1,097
388,332	110,155	-0,988	-0,943
389,346	373,318	-0,503	-0,815
390,361	63,635	-0,919	-0,733
391,375	205,661	-0,557	-0,688
392,390	-33,916	-1,042	-0,454
393,405	152,060	-0,658	-0,714
394,419	2,503	-1,183	-0,679
395,434	-71,703	-1,073	-0,316
396,448	92,306	-0,992	-0,888
397,463	-59,955	-1,142	-0,386
398,478	-8,403	-1,020	-0,543
399,492	4,823	-0,807	-0,470
400,507	83,200	-1,051	-0,908
401,521	134,712	-0,774	-0,798
402,536	40,895	-1,083	-0,775
403,550	-97,252	-1,262	-0,259
404,565	20,921	-0,911	-0,585
405,580	286,989	-0,730	-1,049
406,594	-70,434	-1,032	-0,309
407,609	14,030	-0,397	-0,245
408,623	42,785	-0,831	-0,600
409,638	-109,035	-0,976	0,164
410,653	-41,568	-0,968	-0,393
411,667	241,261	-0,568	-0,754
412,682	-70,492	-0,980	-0,293
413,696	182,032	-0,636	-0,745
414,711	116,563	-0,744	-0,724
415,726	173,354	-0,844	-0,967
416,740	-5,593	-0,397	-0,215
417,755	40,469	-0,876	-0,625
418,769	53,708	-0,991	-0,754
419,784	2,040	-0,948	-0,542
420,799	-172,959	-1,079	-0,026
421,813	-9,450	-0,798	-0,421
422,828	332,383	-0,751	-1,153
423,842	3,101	-0,634	-0,365
424,857	-126,314	-0,997	-0,117
425,872	5,509	-1,086	-0,635
426,886	-32,641	-0,796	-0,350
427,901	-33,406	-0,770	-0,336
428,915	-67,622	-0,819	-0,253
429,930	163,146	-0,635	-0,708
430,945	134,704	-0,809	-0,833
431,959	7,810	-0,860	-0,510
432,974	-45,855	-0,844	-0,329
433,988	96,115	-0,806	-0,731
435,003	-68,171	-1,073	-0,329
436,018	438,247	-0,738	-1,280
437,032	-80,218	-1,044	-0,275
438,047	99,035	-0,561	-0,514
439,061	-159,373	-0,663	0,029
440,076	-73,545	-0,845	-0,243
441,091	84,733	-0,868	-0,753
442,105	-64,075	-0,881	-0,283
443,120	-38,154	-0,908	-0,380
444,134	-112,493	-1,064	-0,167
445,149	48,266	-0,619	-0,458
446,163	57,992	-0,563	-0,437
447,178	233,476	-0,682	-0,890
448,193	15,662	-0,816	-0,507
449,207	114,176	-0,761	-0,734
450,222	-18,738	-1,015	-0,499
451,236	-94,580	-0,688	0,147
452,251	-5,094	-0,847	-0,460
453,266	-43,193	-1,041	-0,415
454,280	215,771	-0,574	-0,723
455,295	6,581	-0,977	-0,573
456,309	101,729	-0,632	-0,583
457,324	-122,757	-0,966	-0,122
458,339	-50,077	-0,818	0,305
459,353	-160,951	-0,564	-0,023
460,368	205,985	-0,626	-0,772
461,382	161,554	-0,642	-0,712
462,397	115,823	-0,102	-0,099
463,412	-4,882	-1,224	-0,665
464,426	-3,270	-0,620	-0,341
465,441	-182,347	-0,657	-0,009
466,455	121,161	-0,493	-0,486
467,470	-64,106	-0,743	-0,239
468,485	-76,161	-0,834	-0,231
469,499	-147,683	-0,666	-0,044
470,514	88,487	-0,719	-0,631
471,528	46,231	-0,712	-0,521
472,543	-6,892	-0,711	-0,381
473,558	94,612	-0,824	-0,741
474,572	179,465	-0,634	-0,735
475,587	47,586	-0,677	-0,498
476,601	3,274	-0,246	-0,141
477,616	-92,034	-0,720	-0,160
478,631	82,755	-0,867	-0,745
479,645	-66,823	-0,574	-0,178
480,660	-65,018	-0,857	-0,272
481,674	700,000	-0,309	-0,854
482,689	41,023	-0,789	-0,562
483,703	-88,285	-0,676	-0,159
484,718	118,995	-0,318	-0,310
485,733	275,192	-0,493	-0,692
486,747	4,073	-0,384	-0,221
487,762	-26,102	-0,733	-0,339
488,776	-157,989	-0,692	0,032
489,791	-56,270	-0,574	0,201
490,806	3,795	-0,656	-0,378
491,820	-79,200	-0,993	-0,264
492,835	-121,446	-1,203	-0,156
493,849	129,983	-0,383	-0,387
494,864	-170,549	-0,663	-0,018
495,879	18,640	-0,402	-0,254
496,893	32,741	-0,525	-0,358
497,908	152,319	-0,933	-1,007
498,922	253,569	-0,544	-0,736
499,937	44,588	-0,948	-0,687
500,952	700,000	-0,251	-0,538
501,966	27,963	-0,802	-0,533
502,981	90,899	-0,363	-0,321
503,995	-5,063	-0,663	-0,359
505,010	163,864	-0,906	-1,008
506,025	-9,692	-0,767	-0,402
507,039	-104,627	-0,494	0,089
508,054	375,059	-0,387	-0,625
509,068	-12,113	-0,695	-0,358
510,083	70,700	-0,533	-0,435
511,098	-64,080	-0,775	-0,248
512,112	-139,923	-0,545	0,045
513,127	54,166	-0,515	-0,390
514,141	103,573	-0,803	-0,744
515,156	-70,991	-0,861	-0,254
516,171	278,231	-0,670	-0,943
517,185	192,585	-0,309	-0,368
518,200	-34,599	-0,683	-0,294
519,214	-3,513	-0,541	-0,296
520,229	685,632	-0,469	-0,971
521,243	40,572	-0,829	-0,588
522,258	166,012	-0,484	-0,541
523,273	5,066	-0,661	-0,383
524,287	152,845	-0,400	-0,431
525,302	700,000	-0,176	-0,375
526,316	102,577	-0,846	-0,780
527,331	67,827	-0,986	-0,794
528,346	-30,529	-0,680	-0,303
529,360	700,000	0,101	-0,315
530,375	95,637	-0,537	-0,483
531,389	-23,663	-0,728	-0,343
532,404	194,454	-0,439	-0,525
533,419	-111,434	-0,426	-0,068
534,433	109,766	-0,654	-0,617
535,448	-200,000	0,023	-0,621
536,462	-46,883	-0,786	-0,301
537,477	-133,046	-0,611	-0,060
538,492	700,000	-0,334	-0,784
539,506	-200,000	-0,094	-0,535
540,521	700,000	-0,536	-1,155
541,535	52,997	-0,558	0,420
542,550	267,943	-0,554	-0,766
543,565	95,425	-0,240	-0,216
544,579	-94,088	-0,651	-0,140
545,594	58,259	-0,673	-0,519
546,608	-97,647	-0,823	0,167
547,623	-153,989	-0,830	-0,044
548,638	700,000	-0,109	-0,343
549,652	-85,140	-0,863	-0,211
550,667	54,196	-0,744	-0,563
551,681	370,916	-0,363	-0,582
552,696	426,130	-0,692	-1,178
553,711	89,198	-0,463	-0,405
554,725	700,000	-0,339	-0,976
555,740	700,000	-0,186	-0,460
556,754	-80,924	-0,761	-0,197
557,769	3,941	-0,834	-0,478
558,783	-9,217	-0,553	-0,290
559,798	355,054	-0,515	-0,809
560,813	653,926	-0,053	0,107
561,827	-102,761	-0,607	-0,113
562,842	-2,519	-0,415	-0,228
563,856	-107,476	-0,611	0,104
564,871	700,000	-0,613	-1,304
565,886	-128,800	-0,393	-0,043
566,900	-161,987	-0,621	-0,024
567,915	32,638	-0,385	0,262
568,929	473,175	-0,408	-0,725
569,944	50,298	-0,654	-0,485
570,959	-105,303	-0,562	-0,100
571,973	-115,602	-0,654	0,096
572,988	227,506	-0,455	-0,583
574,002	-200,000	0,098	-0,669
575,017	-82,260	-0,692	0,176
576,032	110,751	-0,723	-0,683
577,046	73,943	-0,563	-0,464
578,061	46,560	-0,755	-0,550
579,075	-130,843	-0,347	-0,036
580,090	11,388	-0,759	-0,456
581,105	54,065	-0,640	-0,483
582,119	11,709	-0,989	-0,595
583,134	577,734	-0,306	-0,590
584,148	159,853	-0,453	-0,496
585,163	140,549	-0,529	-0,549
586,178	-21,432	-1,010	-0,482
587,192	-118,395	-0,716	-0,099
588,207	342,926	-0,196	-0,302
589,221	-2,968	-0,266	0,145
590,236	46,273	-0,448	-0,326
591,251	-200,000	-0,077	-0,515
592,265	90,247	-0,576	-0,506
593,280	119,612	-0,344	-0,334
594,294	-29,825	-0,354	-0,158
595,309	-1,826	-0,736	-0,405
596,324	408,658	-0,399	-0,665
597,338	-123,747	-0,495	-0,061
598,353	206,828	-0,449	-0,550
599,367	4,145	-0,495	-0,284
600,382	700,000	-0,204	-0,655
601,396	14,872	-0,626	-0,383
602,411	-18,067	-0,513	-0,251
603,426	6,015	-0,256	0,149
604,440	228,249	-0,222	-0,284
605,455	-103,456	-0,652	-0,119
606,469	-33,411	-0,755	-0,326
607,484	-85,886	-0,510	0,123
608,499	700,000	-0,235	-0,488
609,513	700,000	0,039	-0,110
610,528	260,509	-0,315	-0,428
611,542	16,572	-0,494	-0,305
612,557	-122,243	-0,379	-0,048
613,572	-112,075	-0,652	-0,102
614,586	12,637	-0,617	-0,373
615,601	-86,047	-0,821	-0,198
616,615	276,851	-0,334	-0,466
617,630	99,775	-0,644	-0,585
618,645	-25,404	-0,665	-0,307
619,659	-24,480	-0,507	-0,236
620,674	-136,769	-0,402	-0,036
621,688	208,533	-0,123	-0,150
622,703	420,882	-0,240	-0,404
623,718	-121,072	-0,459	-0,060
624,732	167,138	-0,489	-0,545
625,747	-32,805	-0,578	-0,251
626,761	-121,134	-0,511	-0,066
627,776	-129,826	-0,708	-0,075
628,791	515,863	-0,339	-0,623
629,805	139,118	-0,685	-0,706
630,820	-7,725	-0,638	0,336
631,834	657,518	-0,259	-0,524
632,849	73,933	-0,598	-0,491
633,864	-103,461	-0,674	-0,123
634,878	231,432	-0,516	-0,664
635,893	-46,558	-0,720	-0,275
636,907	-170,668	-0,563	0,015
637,922	-167,233	-0,675	-0,021
638,936	-55,209	-0,752	-0,263
639,951	52,984	-0,497	-0,372
640,966	-21,705	-0,636	0,302
641,980	-103,687	-0,476	0,087
642,995	-83,345	-0,481	-0,120
644,009	52,628	-0,712	-0,532
645,024	165,571	-0,396	-0,439
646,039	-30,522	-0,461	0,204
647,053	68,456	-0,638	-0,512
648,068	-76,884	-0,438	-0,119
649,082	-200,000	-0,003	-0,890
650,097	-62,314	-0,137	0,044
651,112	-29,925	-0,404	0,179
652,126	18,028	-0,538	-0,335
653,141	-60,122	-0,773	0,257
654,155	-1,300	-0,434	-0,239
655,170	700,000	-0,062	-0,210
656,185	-63,415	-0,429	-0,137
657,199	-29,120	-0,639	-0,286
658,214	103,757	-0,690	-0,634
659,228	-20,277	-0,171	-0,082
660,243	-200,000	-0,057	-0,595
661,258	139,552	-0,401	-0,413
662,272	45,420	-0,439	-0,316
663,287	700,000	-0,243	-0,772
664,301	-200,000	-0,074	-0,376
665,316	423,391	-0,268	-0,451
666,331	-76,694	-0,401	-0,109
667,345	-12,618	-0,356	0,181
668,360	-0,418	-0,660	0,365
669,374	-137,057	-0,662	0,058
670,389	-128,471	-0,808	-0,089
671,404	-18,716	-0,454	-0,220
672,418	80,071	-0,240	-0,202
673,433	-156,341	-0,460	0,022
674,447	-200,000	-0,106	-0,389
675,462	96,408	-0,544	-0,486
676,476	68,631	-0,189	-0,151
677,491	-200,000	-0,062	-0,418
678,506	81,942	-0,447	-0,378
679,520	-49,073	-0,515	-0,192
680,535	302,492	-0,310	0,449
681,549	700,000	-0,201	-0,639
682,564	129,317	-0,616	-0,615
683,579	57,725	-0,363	-0,277
684,593	-6,162	-0,261	0,139
685,608	546,494	-0,144	-0,269
686,622	54,233	-0,163	0,123
687,637	254,802	-0,522	-0,698
688,652	634,095	-0,327	-0,650
689,666	582,751	-0,186	-0,358
690,681	7,726	-0,617	0,360
691,695	197,312	-0,376	-0,448
692,710	-0,560	-0,503	-0,278
693,725	253,538	-0,462	-0,617
694,739	212,303	-0,399	-0,492
695,754	-53,283	-0,426	0,152
696,768	75,328	-0,203	0,167
697,783	291,504	-0,277	-0,394
698,798	700,000	-0,438	-0,951
699,812	114,872	-0,384	-0,366
700,827	196,526	-0,150	0,179
701,841	-77,165	0,437	-0,118
702,856	95,926	-0,222	0,198
703,871	-200,000	0,010	-0,058
704,885	50,699	-0,716	-0,528
705,900	-72,368	-0,609	-0,175
706,914	630,925	-0,284	-0,562
707,929	-76,414	-0,602	-0,164
708,944	-111,508	-0,323	0,051
709,958	-200,000	-0,012	0,063
710,973	-67,409	-0,369	-0,112
711,987	-195,223	-0,429	-0,002
713,002	-24,640	-0,594	0,275
714,017	-112,038	-0,944	0,147
715,031	-102,901	-0,536	-0,098
716,046	231,018	-0,249	-0,318
717,060	221,322	-0,317	0,397
718,075	-200,000	-0,075	-0,371
719,089	-200,000	-0,150	-0,596
720,104	35,301	-0,278	-0,190
721,119	700,000	-0,154	-0,417
722,133	0,056	-0,407	-0,225
723,148	64,906	-0,385	-0,302
724,162	-200,000	0,038	-0,217
725,177	86,266	-0,205	-0,176
726,192	20,312	-0,410	-0,257
727,206	-86,883	-1,003	-0,237
728,221	34,067	-0,470	-0,318
729,235	700,000	-0,220	-0,472
730,250	250,718	-0,267	-0,354
731,265	-135,109	-0,423	-0,039
732,279	199,930	-0,539	-0,645
733,294	277,314	-0,317	-0,440
734,308	136,011	-0,274	0,278
735,323	700,000	-0,133	-0,297
736,338	228,957	-0,323	-0,410
737,352	-93,814	-0,351	0,075
738,367	-147,571	-0,831	-0,054
739,381	-60,195	-0,664	-0,219
740,396	-97,322	-0,497	-0,100
741,411	-28,074	-0,288	0,129
742,425	15,046	-0,458	-0,278
743,440	-77,419	-0,653	-0,175
744,454	21,737	-0,421	0,266
745,469	-5,038	-0,281	-0,150
746,484	-137,598	-0,753	0,065
747,498	-162,250	-0,080	0,003
748,513	-96,456	-0,165	-0,034
749,527	-99,923	-0,658	0,127
750,542	-73,393	-0,786	-0,222
751,557	42,327	-0,355	-0,251
752,571	700,000	-0,068	-0,229
753,586	75,855	-0,250	-0,206
754,600	-127,408	-0,640	-0,072
755,615	543,515	-0,276	-0,515
756,629	-200,000	0,073	-0,360
757,644	58,551	-0,442	-0,337
758,659	-17,707	-0,416	-0,202
759,673	39,371	0,016	0,011
760,688	53,389	-0,147	0,110
761,702	163,384	-0,215	-0,235
762,717	508,838	-0,296	-0,537
763,732	-128,520	-0,338	-0,037
764,746	-200,000	-0,020	-0,378
765,761	-64,252	-0,412	-0,130
766,775	-50,417	-0,607	0,222
767,790	173,526	-0,400	-0,448
768,805	67,918	-0,449	-0,357
769,819	199,572	-0,218	-0,261
770,834	74,733	-0,190	-0,155
771,848	260,432	-0,571	-0,769
772,863	700,000	-0,198	-0,415
773,878	69,702	-0,234	-0,187
774,892	371,358	-0,101	0,160
775,907	112,979	-0,241	0,227
776,921	-200,000	-0,095	-0,338
777,936	232,133	-0,272	-0,347
778,951	-38,967	-0,594	0,242
779,965	-110,089	-0,344	0,055
780,980	509,292	-0,499	-0,904
781,994	29,373	-0,731	-0,481
783,009	10,569	-0,450	-0,266
784,024	700,000	-0,093	-0,236
785,038	248,811	-0,086	0,113
786,053	-200,000	-0,117	-0,420
787,067	700,000	-0,064	-0,198
788,082	-200,000	-0,025	-0,265
789,097	214,738	-0,087	-0,108
790,111	140,758	-0,102	0,104
791,126	-76,783	-0,130	0,035
792,140	97,756	-0,192	0,171
793,155	700,000	-0,243	-0,511
794,169	-103,504	-0,462	0,084
795,184	-107,649	-0,596	-0,100
796,199	35,456	0,041	0,028
797,213	-200,000	0,072	-0,477
798,228	44,223	-0,564	-0,401
799,242	-200,000	0,018	0,200
800,257	-116,612	-0,275	0,039
801,272	267,647	-0,332	-0,451
802,286	-81,334	-0,526	0,134
803,301	175,381	-0,163	-0,183
804,315	59,779	-0,299	-0,228
805,330	-167,132	-0,355	0,011
806,345	140,726	-0,171	-0,176
807,359	-123,734	0,146	-0,018
808,374	-98,480	-0,581	-0,114
809,388	-92,168	-0,564	-0,123
810,403	-44,446	-0,717	-0,277
811,418	-99,497	-0,409	0,079
812,432	-2,679	-0,442	-0,239
813,447	20,146	-0,197	-0,123
814,461	314,553	-0,304	-0,445
815,476	-83,935	-0,648	-0,159
816,491	94,186	-0,505	-0,444
817,505	700,000	0,099	0,290
818,520	161,702	-0,399	-0,433
819,534	11,664	-0,362	0,215
820,549	-200,000	-0,075	-0,260
821,564	-55,171	-0,320	0,111
822,578	121,726	-0,268	0,259
823,593	-60,819	-0,392	-0,128
824,607	700,000	-0,121	-0,289
825,622	135,328	-0,214	-0,215
826,637	374,833	-0,185	-0,293
827,651	194,974	-0,537	-0,632
828,666	-200,000	-0,116	-0,418
829,680	-200,000	-0,176	-0,900
830,695	-44,181	-0,569	0,220
831,709	72,446	-0,241	-0,194
832,724	1,492	-0,028	-0,016
833,739	22,687	-0,354	-0,224
834,753	700,000	-0,187	-0,634
835,768	85,592	-0,235	0,200
836,782	-200,000	0,019	0,132
837,797	-200,000	-0,037	-0,467
838,812	-57,984	-0,380	-0,128
839,826	700,000	0,217	-0,492
840,841	501,628	-0,151	-0,271
841,855	700,000	-0,025	-0,056
842,870	-85,143	0,105	-0,025
843,885	-68,176	-0,281	-0,084
844,899	-200,000	-0,036	-0,292
845,914	-200,000	-0,022	-0,636
846,928	316,488	-0,101	-0,148
847,943	-46,090	-0,487	-0,185
848,958	700,000	-0,348	-1,045
849,972	-200,000	-0,009	-0,564
850,987	613,602	0,231	-0,449
852,001	46,423	-0,218	0,156
853,016	117,532	-0,208	-0,198
854,031	-56,861	-0,484	0,165
855,045	20,376	-0,631	-0,394
856,060	-58,903	-0,309	0,103
857,074	-55,585	-0,453	-0,156
858,089	-131,793	-0,492	0,049
859,104	99,574	-0,440	0,394
860,118	-99,163	0,245	-0,048
861,133	-40,241	-0,348	0,139
862,147	273,065	-0,193	0,265
863,162	34,792	0,024	0,016
864,177	-75,308	-0,546	-0,150
865,191	-120,251	-0,424	0,055
866,206	-200,000	-0,065	-0,657
867,220	672,092	-0,152	-0,306
868,235	-200,000	0,129	-0,577
869,250	-24,690	-0,401	-0,184
870,264	-200,000	-0,082	-0,459
871,279	136,906	-0,349	-0,352
872,293	42,006	-0,612	0,428
873,308	217,653	-0,379	-0,467
874,322	124,235	-0,305	0,296
875,337	10,500	-0,344	-0,202
876,352	700,000	-0,322	-0,716
877,366	-146,567	-0,333	0,022
878,381	-200,000	-0,032	0,389
879,395	700,000	-0,083	0,174
880,410	50,798	-0,104	-0,076
881,425	700,000	-0,197	-0,518
882,439	-10,876	-0,653	-0,332
883,454	-43,834	-0,354	0,137
884,468	71,713	-0,017	0,014
885,483	81,623	-0,331	0,276
886,498	22,312	-0,239	0,150
887,512	243,653	-0,201	0,260
888,527	-39,808	-0,491	-0,197
889,541	34,246	-0,163	-0,109
890,556	136,917	-0,415	0,419
891,571	20,880	-0,313	0,195
892,585	700,000	-0,252	-0,623
893,600	-200,000	0,007	0,213
894,614	66,138	-0,199	-0,156
895,629	-200,000	-0,185	-0,801
896,644	700,000	0,061	-0,127
897,658	-200,000	-0,027	-0,402
898,673	-113,451	-0,193	-0,029
899,687	-93,543	-0,587	0,124
900,702	-200,000	-0,110	-0,511
901,717	700,000	-0,125	-0,336
902,731	57,526	-0,236	0,178
903,746	-200,000	-0,039	0,205
904,760	700,000	-0,105	0,243
905,775	-128,575	-0,162	0,017
906,790	-71,765	-0,555	0,159
907,804	150,859	-0,206	0,216
908,819	-200,000	0,051	0,410
909,833	301,921	-0,291	0,416
910,848	-51,274	-0,133	0,048
911,862	-125,205	-0,528	0,062
912,877	-133,492	-0,460	-0,044
913,892	52,455	-0,596	0,437
914,906	-200,000	-0,092	-0,346
915,921	-70,009	0,061	0,018
916,935	700,000	-0,154	-0,404
917,950	-102,719	-0,448	0,081
918,965	-15,785	-0,190	0,093
919,979	19,855	-0,148	-0,092
920,994	58,679	-0,488	0,368
922,008	41,271	-0,424	-0,294
923,023	-49,886	-0,254	0,092
924,038	10,096	-0,387	-0,226
925,052	633,366	-0,127	0,250
926,067	-17,191	-0,299	0,145
927,081	187,889	-0,362	-0,416
928,096	196,917	-0,142	-0,167
929,111	25,112	-0,277	0,176
930,125	-47,865	-0,435	0,161
931,140	-88,532	-0,365	0,083
932,154	29,462	-0,311	0,203
933,169	225,741	-0,155	-0,193
934,184	117,118	0,094	0,089
935,198	26,625	-0,272	-0,175
936,213	-200,000	0,062	-0,251
937,227	-61,230	0,470	-0,151
938,242	700,000	-0,063	-0,134
939,257	700,000	0,054	-0,147
940,271	700,000	-0,117	0,312
941,286	273,383	0,208	0,283
942,300	186,772	0,063	-0,072
943,315	700,000	-0,320	-0,763
944,330	-162,165	-0,799	-0,030
945,344	-88,019	-0,605	-0,139
946,359	295,113	0,043	-0,061
947,373	136,955	-0,200	0,201
948,388	48,497	-0,381	-0,274
949,402	-118,254	-0,456	0,062
950,417	-28,945	-0,477	-0,210
951,432	-0,955	0,010	-0,005
952,446	700,000	-0,240	0,719
953,461	-10,128	-0,546	0,278
954,475	311,508	-0,219	-0,317
955,490	236,073	-0,254	-0,324
956,505	-122,528	-0,455	0,056
957,519	-200,000	-0,098	-0,341
958,534	-66,397	-0,384	0,117
959,548	-8,931	-0,655	0,336
960,563	120,884	-0,323	0,308
961,578	42,851	-0,330	-0,231
962,592	-200,000	0,064	-0,541
963,607	226,119	-0,164	-0,205
964,621	-200,000	-0,448	0,001
965,636	53,275	-0,320	-0,235
966,651	83,469	-0,121	-0,101
967,665	271,087	0,180	-0,244
968,680	-200,000	-0,108	-0,388
969,694	-36,239	-0,644	0,266
970,709	-95,731	-0,577	-0,118
971,724	-200,000	-0,055	0,516
972,738	-200,000	-0,180	-1,044
973,753	-200,000	0,070	0,361
974,767	188,503	-0,295	-0,339
975,782	-200,000	0,031	-0,200
976,797	628,242	-0,203	-0,395
977,811	-119,773	-0,398	-0,052
978,826	2,922	-0,206	0,114
979,840	-200,000	-0,054	-0,286
980,855	-133,033	0,187	-0,018
981,870	-29,184	-0,241	-0,106
982,884	-102,122	-0,472	-0,086
983,899	268,488	-0,445	0,600
984,913	297,758	-0,110	0,155
985,928	191,055	-0,113	-0,130
986,942	-200,000	0,011	0,409
987,957	700,000	-0,118	0,378
988,972	176,888	-0,136	0,152
989,986	-0,116	0,184	0,100
991,001	134,612	-0,293	-0,291
992,015	91,522	-0,134	0,115
993,030	700,000	-0,258	-0,525
994,045	700,000	-0,196	-0,399
995,059	263,880	-0,441	-0,589
996,074	379,422	-0,117	0,184
997,088	199,757	-0,280	-0,330
998,103	199,535	-0,453	-0,533
999,118	-200,000	-0,065	-0,710
1000,132	90,886	-0,135	0,116
1001,147	700,000	-0,181	-0,430
1002,161	-200,000	0,066	0,293
1003,176	-141,584	-0,442	-0,034
1004,191	74,804	-0,239	0,193
1005,205	-69,264	-0,600	0,176
1006,220	-58,904	-0,506	-0,167
1007,234	325,381	-0,371	0,544
1008,249	-38,497	-0,136	0,055
1009,264	66,597	-0,410	-0,319
1010,278	81,762	-0,511	-0,423
1011,293	670,223	-0,164	-0,326
1012,307	416,157	-0,132	0,217
1013,322	-200,000	0,003	-0,558
1014,337	-135,980	-0,154	0,014
1015,351	700,000	-0,139	-0,387
1016,366	-110,539	-0,165	-0,026
1017,380	-200,000	-0,048	-0,186
1018,395	-200,000	-0,154	-0,801
1019,410	-200,000	-0,038	0,456
1020,424	-121,591	-0,161	-0,020
1021,439	27,836	-0,304	-0,196
1022,453	-95,618	-0,458	0,093
1023,468	-151,919	-0,470	0,026
1024,483	-117,192	-0,211	-0,029
1025,497	70,335	-0,277	-0,219
1026,512	-101,951	-0,167	0,031
1027,526	700,000	-0,102	-0,247
1028,541	-200,000	0,046	-0,183
1029,555	-104,350	0,210	0,037
1030,570	-200,000	0,043	-0,294
1031,585	425,707	0,041	-0,067
1032,599	222,685	0,128	-0,158
1033,614	84,428	-0,189	-0,158
1034,628	-200,000	-0,052	-0,218
1035,643	-200,000	-0,003	-0,236
1036,658	700,000	-0,029	0,071
1037,672	-200,000	-0,031	-0,182
1038,687	-47,158	-0,097	-0,036
1039,701	180,266	-0,256	0,287
1040,716	700,000	0,085	0,267
1041,731	-200,000	-0,026	-0,171
1042,745	1,351	-0,143	-0,078
1043,760	146,442	-0,377	-0,387
1044,774	-200,000	-0,084	-0,283
1045,789	425,239	-0,273	-0,450
1046,804	700,000	-0,214	0,451
1047,818	32,002	-0,073	-0,048
1048,833	129,764	-0,170	-0,166
1049,847	-200,000	-0,000	-0,518
1050,862	-200,000	0,082	-0,375
1051,877	167,313	-0,233	-0,253
1052,891	-118,822	-0,113	0,015
1053,906	231,212	0,537	0,673
1054,920	-200,000	0,063	0,297
1055,935	-200,000	-0,019	-0,295
1056,950	-200,000	0,014	-0,338
1057,964	151,743	0,026	-0,027
1058,979	-200,000	0,036	-0,245
1059,993	700,000	-0,094	0,214
1061,008	-166,617	-0,296	-0,009
1062,023	216,941	-0,453	0,551
1063,037	47,344	-0,135	0,096
1064,052	523,761	-0,091	0,163
1065,066	388,154	-0,318	0,504
1066,081	-86,472	-0,372	-0,087
1067,095	277,158	-0,149	0,203
1068,110	-101,980	-0,203	-0,037
1069,125	488,840	0,158	0,277
1070,139	-200,000	-0,012	-0,091
1071,154	-200,000	-0,088	-0,474
1072,168	700,000	-0,248	-0,611
1073,183	293,230	-0,244	-0,340
1074,198	673,457	-0,147	0,293
1075,212	-113,576	-0,218	-0,032
1076,227	-200,000	-0,171	-0,822
1077,241	-200,000	-0,127	-0,549
1078,256	700,000	0,161	-0,367
1079,271	-27,875	-0,253	0,111
1080,285	100,723	-0,653	-0,578
1081,300	700,000	-0,240	0,524
1082,314	366,449	-0,316	0,487
1083,329	-68,555	-0,159	0,047
1084,344	700,000	-0,137	-0,410
1085,358	-200,000	-0,126	-0,568
1086,373	-134,789	0,118	-0,011
1087,387	-59,586	-0,209	-0,068
1088,402	-200,000	-0,014	0,245
1089,417	-200,000	-0,041	0,171
1090,431	457,569	-0,434	-0,737
1091,446	245,079	-0,284	0,364
1092,460	700,000	0,141	0,298
1093,475	-200,000	0,061	-0,224
1094,490	700,000	-0,186	-0,465
1095,504	189,650	0,353	-0,404
1096,519	-200,000	-0,221	-0,812
1097,533	-8,163	-0,557	0,285
1098,548	-32,264	-0,472	0,200
1099,563	-100,185	-0,447	-0,084
1100,577	-59,231	-0,479	-0,156
1101,592	11,021	-0,249	0,145
1102,606	258,608	-0,296	0,389
1103,621	404,239	-0,197	0,317
1104,635	377,499	-0,240	-0,374
1105,650	-130,136	-0,694	-0,071
1106,665	-87,178	-0,476	-0,109
1107,679	461,335	-0,145	-0,247
1108,694	-57,959	-0,425	-0,140
1109,708	700,000	-0,163	-0,421
1110,723	-200,000	-0,037	-0,355
1111,738	700,000	-0,133	0,348
1112,752	80,130	-0,413	-0,338
1113,767	4,032	-0,506	-0,281
1114,781	-121,542	-0,471	-0,059
1115,796	204,766	0,164	0,194
1116,811	395,388	-0,205	0,326
1117,825	-163,424	-0,525	0,019
1118,840	187,072	0,039	-0,045
1119,854	166,414	-0,134	0,145
1120,869	700,000	-0,240	-0,790
1121,884	-54,572	-0,272	0,093
1122,898	-63,132	-0,142	-0,044
1123,913	-200,000	-0,005	0,087
1124,927	146,982	-0,076	0,078
1125,942	224,016	-0,192	0,236
1126,957	-200,000	-0,097	-0,339
1127,971	-200,000	-0,029	-0,315
1128,986	-25,637	-0,537	-0,240
1130,000	-16,343	-0,232	-0,111
1131,015	700,000	-0,035	-0,092
1132,030	-200,000	-0,072	0,284
1133,044	-200,000	0,092	0,469
1134,059	312,864	0,205	-0,294
1135,073	-200,000	0,002	-0,061
1136,088	-84,046	-0,469	0,113
1137,103	129,439	-0,292	0,283
1138,117	-200,000	0,004	-0,078
1139,132	-200,000	-0,141	-0,473
1140,146	19,450	-0,423	-0,258
1141,161	-17,939	-0,109	0,052
1142,176	62,722	-0,336	-0,255
1143,190	-110,584	-0,529	-0,082
1144,205	-128,892	-0,244	-0,026
1145,219	-4,045	-0,455	0,239
1146,234	434,937	-0,228	-0,378
1147,248	700,000	-0,022	0,046
1148,263	-67,339	0,298	-0,089
1149,278	-200,000	0,040	0,136
1150,292	-200,000	0,003	-0,167
1151,307	368,400	-0,137	-0,211
1152,321	-83,087	-0,144	-0,035
1153,336	338,809	-0,378	-0,561
1154,351	-200,000	0,068	-0,492
1155,365	-200,000	0,044	0,180
1156,380	700,000	-0,105	-0,252
1157,394	-139,935	-0,085	0,007
1158,409	88,028	-0,401	-0,337
1159,424	399,026	-0,295	-0,471
1160,438	700,000	-0,147	-0,479
1161,453	627,272	-0,132	0,255
1162,467	700,000	-0,248	-0,521
1163,482	69,983	-0,186	0,145
1164,497	-200,000	-0,028	-0,206
1165,511	280,437	0,108	0,147
1166,526	22,593	-0,296	-0,183
1167,540	-168,884	-0,125	-0,003
1168,555	460,191	-0,145	-0,246
1169,570	93,335	-0,110	0,094
1170,584	-200,000	-0,168	-0,732
1171,599	700,000	0,046	0,119
1172,613	209,437	-0,037	0,045
1173,628	-200,000	-0,007	0,555
1174,643	55,733	-0,194	0,142
1175,657	-107,614	-0,353	0,058
1176,672	-99,880	-0,480	-0,090
1177,686	700,000	-0,224	-0,671
1178,701	-138,253	0,199	-0,017
1179,716	102,824	-0,129	0,114
1180,730	-1,421	-0,213	0,113
1181,745	-92,938	-0,263	0,055
1182,759	146,421	-0,337	-0,343
1183,774	242,778	0,088	0,112
1184,788	283,666	-0,176	-0,240
1185,803	148,498	-0,224	-0,229
1186,818	596,471	-0,140	0,263
1187,832	461,951	-0,209	0,354
1188,847	-200,000	0,124	0,526
1189,861	-200,000	0,080	-0,500
1190,876	44,804	-0,509	-0,354
1191,891	72,975	-0,665	-0,526
1192,905	-196,027	-0,472	-0,002
1193,920	-200,000	-0,043	0,262
1194,934	-200,000	-0,004	-0,037
1195,949	-85,571	0,058	0,013
1196,964	-200,000	-0,004	0,075
1197,978	322,500	0,144	0,208
1198,993	79,700	-0,062	0,050
1200,007	-200,000	0,003	0,148
1201,022	-200,000	0,033	0,161
1202,037	-200,000	-0,024	-0,122
1203,051	-200,000	-0,040	0,457
1204,066	-200,000	-0,024	0,262
1205,080	-182,074	-0,220	-0,003
1206,095	-134,382	-0,321	-0,029
1207,110	533,448	-0,083	0,149
1208,124	-36,723	0,095	-0,039
1209,139	700,000	0,068	-0,207
1210,153	140,377	-0,216	0,215
1211,168	700,000	-0,147	-0,450
1212,183	-54,053	-0,098	0,034
1213,197	-200,000	-0,068	-0,699
1214,212	700,000	-0,172	0,385
1215,226	-63,883	-0,178	0,055
1216,241	-4,485	-0,437	0,228
1217,256	-200,000	-0,019	0,192
1218,270	276,311	-0,167	0,225
1219,285	-200,000	0,023	0,214
1220,299	700,000	-0,136	-0,431
1221,314	108,607	0,332	-0,300
1222,328	-200,000	0,007	0,063
1223,343	-200,000	-0,092	0,377
1224,358	-200,000	0,025	-0,359
1225,372	157,043	-0,122	0,128
1226,387	-200,000	-0,052	-0,379
1227,401	-200,000	0,019	-0,075
1228,416	700,000	-0,109	-0,278
1229,431	-200,000	-0,095	0,340
1230,445	700,000	-0,169	0,436
1231,460	-53,194	-0,150	-0,052
1232,474	-109,918	-0,056	-0,009
1233,489	-136,401	0,062	0,005
1234,504	32,098	-0,089	-0,058
1235,518	-200,000	0,010	0,285
1236,533	22,360	-0,254	0,157
1237,547	-200,000	-0,043	0,578
1238,562	700,000	0,203	0,426
1239,577	-200,000	0,054	-0,263
1240,591	-200,000	-0,001	-0,099
1241,606	606,924	-0,157	0,296
1242,620	-200,000	0,058	0,232
1243,635	700,000	0,145	-0,455
1244,650	700,000	0,114	0,247
1245,664	89,194	0,130	-0,109
1246,679	167,417	0,327	-0,351
1247,693	208,210	-0,237	0,279
1248,708	-200,000	-0,106	-0,509
1249,723	700,000	-0,125	0,256
1250,737	700,000	0,111	-0,357
1251,752	-200,000	-0,023	0,422
1252,766	63,171	-0,128	0,097
1253,781	700,000	0,019	0,043
1254,796	182,918	-0,150	-0,167
1255,810	233,282	-0,378	-0,469
1256,825	296,304	-0,082	0,113
1257,839	178,819	-0,141	-0,155
1258,854	333,660	-0,202	-0,295
1259,868	-200,000	0,021	0,235
1260,883	-200,000	-0,040	0,591
1261,898	-187,723	-0,478	-0,005
1262,912	-84,323	-0,366	0,087
1263,927	13,416	0,104	-0,061
1264,941	-0,755	0,363	0,193
1265,956	-188,156	0,471	-0,004
1266,971	700,000	-0,072	0,225
1267,985	-100,118	-0,116	0,022
1269,000	32,204	-0,093	0,060
1270,014	700,000	0,083	-0,256
1271,029	-97,414	0,191	0,037
1272,044	136,250	0,036	0,035
1273,058	494,578	0,139	0,241
1274,073	349,817	0,070	0,104
1275,087	-85,953	-0,194	0,045
1276,102	700,000	0,203	-0,556
1277,117	-51,344	0,104	-0,036
1278,131	700,000	-0,106	-0,315
1279,146	-200,000	0,069	0,392
1280,160	700,000	0,233	0,672
1281,175	-200,000	-0,001	-0,079
1282,190	329,214	0,202	-0,293
1283,204	-200,000	0,074	0,353
1284,219	4,841	0,245	-0,135
1285,233	-57,102	0,273	0,090
1286,248	209,445	0,180	-0,213
1287,263	-200,000	0,037	0,514
1288,277	700,000	0,201	0,541
1289,292	700,000	-0,108	-0,303
1290,306	391,213	0,136	-0,213
1291,321	217,175	-0,059	-0,071
1292,336	427,614	-0,279	-0,454
1293,350	-200,000	-0,183	-0,661
1294,365	-200,000	0,020	0,566
1295,379	207,938	-0,081	0,095
1296,394	-200,000	0,114	0,424
1297,409	-121,242	-0,084	0,010
1298,423	700,000	-0,081	-0,243
1299,438	-200,000	0,016	-0,060
1300,452	81,660	-0,337	-0,274
1301,467	-199,790	-0,551	-0,002
1302,481	-200,000	0,016	0,064
1303,496	-200,000	0,066	0,453
1304,511	-200,000	0,007	0,085
1305,525	286,317	0,038	-0,052
1306,540	-200,000	-0,110	0,540
1307,554	700,000	-0,138	0,318
1308,569	-200,000	0,066	-0,720
1309,584	-71,438	0,121	-0,034
1310,598	-200,000	-0,082	0,498
1311,613	-200,000	0,187	0,770
1312,627	128,972	-0,084	0,081
1313,642	-200,000	-0,047	-0,302
1314,657	278,044	-0,188	0,252
1315,671	37,117	-0,278	-0,185
1316,686	0,022	-0,205	-0,109
1317,700	279,816	-0,189	-0,255
1318,715	36,394	-0,051	-0,034
1319,730	-200,000	-0,096	0,541
1320,744	-100,605	0,073	0,013
1321,759	-200,000	0,049	-0,288
1322,773	-200,000	-0,079	-0,518
1323,788	-74,392	-0,628	0,169
1324,803	148,051	-0,376	-0,381
1325,817	700,000	-0,145	0,450
1326,832	-22,542	-0,152	0,069
1327,846	439,017	0,166	0,272
1328,861	-104,444	0,286	0,049
1329,876	-200,000	-0,056	0,374
1330,890	700,000	-0,216	0,531
1331,905	-26,175	-0,558	-0,245
1332,919	700,000	-0,160	-0,362
1333,934	-89,423	0,162	-0,036
1334,949	700,000	0,121	-0,344
1335,963	162,842	0,195	0,205
1336,978	654,131	0,081	-0,156
1337,992	700,000	-0,132	-0,409
1339,007	386,464	-0,099	0,154
1340,021	-200,000	-0,061	0,241
1341,036	-199,589	-0,292	0,001
1342,051	-200,000	-0,043	-0,220
1343,065	-200,000	-0,007	-0,640
1344,080	-14,620	-0,315	-0,151
1345,094	488,009	-0,144	-0,247
1346,109	-116,995	-0,078	0,011
1347,124	-200,000	-0,011	0,179
1348,138	-200,000	-0,017	0,524
1349,153	700,000	0,062	-0,126
1350,167	-200,000	-0,048	0,285
