DTS Sentinel unit serial number:	SN409016Multiplexer serial number:	ORYXHardware model number:	OX4-SRSoftware version number:	ORYX F/W v4,00 Oryx Data Collector v3.7.3data status	okinstallation	mike1234differential loss correction	combinedforward channel	channel 1reverse channel	channel 1 reversedate	2020/03/06time	19:18:47forward acquisition time	60,00reverse acquisition time	60,00gamma	499,5406k internal	0,2512k external	0,2512temperature offset calibration	1,0000default loss term (dB/km)	0,3750temperature slope calibration	0,0000multiplexer offset coefficient	1,0000multiplexer slope coefficient	1,0000fibre end	0,00T internal ref (°C)	15,56T ext. ref 1 (°C)	7,01T ext. ref 2 (°C)	6,73length (m)	temperature (°C)	forward Stokes	forward anti-Stokes	reverse Stokes	reverse anti-Stokes-746,700	-40,293	-0,141	0,032	1432,261	1356,569
-745,685	314,669	0,032	0,099	1432,261	1356,569
-744,671	88,836	0,121	0,128	1432,261	1356,569
-743,656	197,104	-0,215	0,430	1432,261	1356,569
-742,642	800,000	0,032	0,222	1432,261	1356,569
-741,627	84,720	-0,254	0,260	1432,261	1356,569
-740,612	74,508	-0,097	0,092	1432,261	1356,569
-739,598	115,198	-0,194	0,247	1432,261	1356,569
-738,583	24,813	0,335	0,196	1432,261	1356,569
-737,569	-200,000	-0,001	0,314	1432,261	1356,569
-736,554	118,803	0,215	-0,281	1432,261	1356,569
-735,539	53,138	-0,430	0,336	1432,261	1356,569
-734,525	29,384	0,644	0,396	1432,261	1356,569
-733,510	800,000	-0,048	0,399	1432,261	1356,569
-732,496	-43,879	0,027	-0,006	1432,261	1356,569
-731,481	683,667	-0,045	-0,262	1432,261	1356,569
-730,466	13,843	-0,389	-0,200	1432,261	1356,569
-729,452	94,131	-0,118	0,130	1432,261	1356,569
-728,437	301,470	0,052	-0,154	1432,261	1356,569
-727,423	55,021	-0,200	-0,160	1432,261	1356,569
-726,408	282,420	-0,063	-0,176	1432,261	1356,569
-725,394	-82,591	-0,345	-0,031	1432,261	1356,569
-724,379	-54,116	-0,146	-0,026	1432,261	1356,569
-723,364	46,568	0,204	0,150	1432,261	1356,569
-722,350	6,064	-0,121	0,057	1432,261	1356,569
-721,335	213,077	0,110	0,235	1432,261	1356,569
-720,321	424,105	0,048	0,191	1432,261	1356,569
-719,306	38,029	-0,120	0,081	1432,261	1356,569
-718,291	267,872	-0,107	-0,281	1432,261	1356,569
-717,277	325,443	0,030	0,095	1432,261	1356,569
-716,262	5,465	0,061	-0,028	1432,261	1356,569
-715,248	171,683	0,145	-0,257	1432,261	1356,569
-714,233	242,113	-0,023	0,056	1432,261	1356,569
-713,218	643,825	-0,030	0,172	1432,261	1356,569
-712,204	613,844	-0,075	-0,405	1432,261	1356,569
-711,189	255,789	-0,106	0,269	1432,261	1356,569
-710,175	-53,849	-0,144	-0,025	1432,261	1356,569
-709,160	131,157	-0,136	-0,193	1432,261	1356,569
-708,145	53,257	-0,225	0,176	1432,261	1356,569
-707,131	294,997	-0,083	-0,240	1432,261	1356,569
-706,116	33,438	-0,124	-0,080	1432,261	1356,569
-705,102	588,079	0,031	-0,164	1432,261	1356,569
-704,087	204,952	0,119	0,245	1432,261	1356,569
-703,072	17,260	-0,173	0,093	1432,261	1356,569
-702,058	51,087	0,253	-0,194	1432,261	1356,569
-701,043	-68,331	0,255	0,033	1432,261	1356,569
-700,029	138,437	0,073	-0,108	1432,261	1356,569
-699,014	93,969	-0,229	-0,252	1432,261	1356,569
-697,999	67,707	0,193	-0,172	1432,261	1356,569
-696,985	176,262	-0,138	-0,249	1432,261	1356,569
-695,970	395,134	-0,032	0,118	1432,261	1356,569
-694,956	138,512	0,107	-0,158	1432,261	1356,569
-693,941	17,848	-0,296	0,160	1432,261	1356,569
-692,926	405,753	0,049	0,188	1432,261	1356,569
-691,912	800,000	0,029	-0,237	1432,261	1356,569
-690,897	-22,468	-0,469	-0,146	1432,261	1356,569
-689,883	212,494	-0,207	0,443	1432,261	1356,569
-688,868	133,776	-0,126	-0,181	1432,261	1356,569
-687,854	76,379	-0,186	0,178	1432,261	1356,569
-686,839	518,831	0,080	0,379	1432,261	1356,569
-685,824	-27,050	0,168	0,049	1432,261	1356,569
-684,810	22,766	-0,131	0,075	1432,261	1356,569
-683,795	27,752	-0,321	0,194	1432,261	1356,569
-682,781	74,776	-0,109	0,103	1432,261	1356,569
-681,766	75,643	-0,344	-0,328	1432,261	1356,569
-680,751	800,000	0,031	-0,237	1432,261	1356,569
-679,737	142,511	-0,084	-0,127	1432,261	1356,569
-678,722	108,801	0,068	-0,083	1432,261	1356,569
-677,708	7,466	-0,104	0,049	1432,261	1356,569
-676,693	24,667	-0,201	0,117	1432,261	1356,569
-675,678	1,647	-0,135	-0,059	1432,261	1356,569
-674,664	-73,693	-0,190	-0,021	1432,261	1356,569
-673,649	531,248	0,035	0,168	1432,261	1356,569
-672,635	32,610	-0,087	0,056	1432,261	1356,569
-671,620	-67,810	-0,471	0,061	1432,261	1356,569
-670,605	800,000	0,050	0,458	1432,261	1356,569
-669,591	-42,126	0,217	0,048	1432,261	1356,569
-668,576	348,124	0,079	0,265	1432,261	1356,569
-667,562	-90,917	0,276	0,019	1432,261	1356,569
-666,547	800,000	0,039	0,285	1432,261	1356,569
-665,532	-26,764	0,197	0,057	1432,261	1356,569
-664,518	68,636	0,100	-0,090	1432,261	1356,569
-663,503	-53,232	0,249	-0,044	1432,261	1356,569
-662,489	67,928	0,274	0,245	1432,261	1356,569
-661,474	208,968	0,082	-0,173	1432,261	1356,569
-660,459	91,593	-0,080	0,087	1432,261	1356,569
-659,445	121,338	0,085	-0,113	1432,261	1356,569
-658,430	63,096	-0,257	-0,220	1432,261	1356,569
-657,416	200,981	-0,150	-0,305	1432,261	1356,569
-656,401	-12,982	-0,265	0,095	1432,261	1356,569
-655,386	-160,833	0,256	-0,001	1432,261	1356,569
-654,372	-154,442	-0,277	-0,001	1432,261	1356,569
-653,357	-9,700	-0,149	-0,056	1432,261	1356,569
-652,343	184,134	0,110	0,208	1432,261	1356,569
-651,328	32,247	0,088	0,056	1432,261	1356,569
-650,314	53,675	0,008	-0,006	1432,261	1356,569
-649,299	136,791	-0,188	0,274	1432,261	1356,569
-648,284	0,245	0,228	-0,099	1432,261	1356,569
-647,270	225,879	-0,003	-0,006	1432,261	1356,569
-646,255	-200,000	-0,006	-0,329	1432,261	1356,569
-645,241	168,962	-0,115	-0,201	1432,261	1356,569
-644,226	-102,096	-0,152	-0,007	1432,261	1356,569
-643,211	-47,464	0,077	0,015	1432,261	1356,569
-642,197	-200,000	0,002	0,043	1432,261	1356,569
-641,182	47,331	0,225	0,167	1432,261	1356,569
-640,168	-23,923	0,105	0,032	1432,261	1356,569
-639,153	240,064	-0,043	-0,103	1432,261	1356,569
-638,138	-0,718	0,073	-0,031	1432,261	1356,569
-637,124	105,193	0,151	-0,181	1432,261	1356,569
-636,109	26,233	-0,153	-0,091	1432,261	1356,569
-635,095	-18,087	-0,023	0,008	1432,261	1356,569
-634,080	-50,871	-0,292	0,055	1432,261	1356,569
-633,065	800,000	-0,015	-0,159	1432,261	1356,569
-632,051	107,511	0,157	-0,190	1432,261	1356,569
-631,036	327,651	0,060	-0,191	1432,261	1356,569
-630,022	87,901	-0,170	-0,179	1432,261	1356,569
-629,007	310,441	-0,050	0,152	1432,261	1356,569
-627,992	60,367	0,101	0,084	1432,261	1356,569
-626,978	166,819	-0,162	-0,280	1432,261	1356,569
-625,963	34,226	-0,387	0,251	1432,261	1356,569
-624,949	135,911	-0,137	0,199	1432,261	1356,569
-623,934	31,279	-0,365	-0,229	1432,261	1356,569
-622,919	20,554	-0,157	0,088	1432,261	1356,569
-621,905	55,576	0,012	0,009	1432,261	1356,569
-620,890	-83,935	0,326	-0,028	1432,261	1356,569
-619,876	428,425	0,031	0,123	1432,261	1356,569
-618,861	351,455	0,083	0,281	1432,261	1356,569
-617,846	89,892	-0,075	0,080	1432,261	1356,569
-616,832	184,047	0,121	-0,228	1432,261	1356,569
-615,817	31,548	-0,213	-0,134	1432,261	1356,569
-614,803	800,000	0,005	0,084	1432,261	1356,569
-613,788	-200,000	-0,012	-0,309	1432,261	1356,569
-612,773	65,699	-0,117	-0,103	1432,261	1356,569
-611,759	-13,260	-0,284	-0,102	1432,261	1356,569
-610,744	701,837	0,017	-0,101	1432,261	1356,569
-609,730	11,629	0,237	-0,119	1432,261	1356,569
-608,715	122,900	0,141	-0,189	1432,261	1356,569
-607,701	-58,840	-0,111	0,017	1432,261	1356,569
-606,686	180,428	-0,192	-0,355	1432,261	1356,569
-605,671	23,108	-0,183	-0,105	1432,261	1356,569
-604,657	94,722	0,094	-0,104	1432,261	1356,569
-603,642	15,270	-0,224	-0,117	1432,261	1356,569
-602,628	-80,331	0,329	0,031	1432,261	1356,569
-601,613	-27,351	-0,201	0,058	1432,261	1356,569
-600,598	-24,807	0,227	-0,068	1432,261	1356,569
-599,584	-39,472	-0,203	-0,047	1432,261	1356,569
-598,569	168,508	0,152	-0,264	1432,261	1356,569
-597,555	405,236	-0,020	-0,076	1432,261	1356,569
-596,540	350,457	-0,029	0,098	1432,261	1356,569
-595,525	-7,786	-0,356	0,138	1432,261	1356,569
-594,511	449,225	0,063	0,264	1432,261	1356,569
-593,496	480,038	-0,082	0,365	1432,261	1356,569
-592,482	-22,508	-0,360	0,112	1432,261	1356,569
-591,467	702,181	-0,063	-0,378	1432,261	1356,569
-590,452	167,440	-0,143	-0,248	1432,261	1356,569
-589,438	-37,382	-0,276	0,067	1432,261	1356,569
-588,423	12,375	0,093	-0,047	1432,261	1356,569
-587,409	-38,592	-0,190	-0,045	1432,261	1356,569
-586,394	189,416	-0,162	0,312	1432,261	1356,569
-585,379	-54,877	0,043	-0,007	1432,261	1356,569
-584,365	16,170	0,126	0,066	1432,261	1356,569
-583,350	82,333	0,089	-0,090	1432,261	1356,569
-582,336	-200,000	0,009	0,273	1432,261	1356,569
-581,321	-110,079	-0,217	0,008	1432,261	1356,569
-580,306	-25,218	-0,345	-0,102	1432,261	1356,569
-579,292	-34,898	-0,223	-0,056	1432,261	1356,569
-578,277	246,621	0,067	0,163	1432,261	1356,569
-577,263	573,506	0,055	-0,281	1432,261	1356,569
-576,248	-136,244	-0,154	-0,002	1432,261	1356,569
-575,233	-29,792	0,022	-0,006	1432,261	1356,569
-574,219	-65,448	-0,158	0,022	1432,261	1356,569
-573,204	119,092	-0,105	0,137	1432,261	1356,569
-572,190	135,830	0,200	-0,290	1432,261	1356,569
-571,175	529,148	-0,040	0,191	1432,261	1356,569
-570,161	800,000	-0,013	-0,166	1432,261	1356,569
-569,146	-10,442	-0,113	-0,042	1432,261	1356,569
-568,131	46,812	0,144	-0,106	1432,261	1356,569
-567,117	-137,029	-0,174	-0,002	1432,261	1356,569
-566,102	262,665	0,014	-0,037	1432,261	1356,569
-565,088	203,085	0,197	0,404	1432,261	1356,569
-564,073	159,678	0,205	-0,341	1432,261	1356,569
-563,058	37,204	-0,234	0,157	1432,261	1356,569
-562,044	115,498	0,182	0,233	1432,261	1356,569
-561,029	66,208	0,066	0,058	1432,261	1356,569
-560,015	365,713	-0,072	0,251	1432,261	1356,569
-559,000	-60,858	0,029	-0,004	1432,261	1356,569
-557,985	135,908	0,085	-0,124	1432,261	1356,569
-556,971	-110,367	0,216	-0,008	1432,261	1356,569
-555,956	800,000	0,019	0,272	1432,261	1356,569
-554,942	136,735	-0,074	0,108	1432,261	1356,569
-553,927	5,128	0,182	-0,084	1432,261	1356,569
-552,912	118,123	-0,024	-0,031	1432,261	1356,569
-551,898	43,378	0,152	0,108	1432,261	1356,569
-550,883	114,556	0,198	0,252	1432,261	1356,569
-549,869	-24,888	-0,274	-0,082	1432,261	1356,569
-548,854	55,305	0,062	-0,050	1432,261	1356,569
-547,839	33,464	-0,156	-0,100	1432,261	1356,569
-546,825	145,143	-0,133	-0,204	1432,261	1356,569
-545,810	37,977	-0,267	-0,180	1432,261	1356,569
-544,796	13,502	0,110	-0,056	1432,261	1356,569
-543,781	39,486	0,229	-0,157	1432,261	1356,569
-542,766	420,715	0,024	-0,096	1432,261	1356,569
-541,752	235,723	-0,210	0,493	1432,261	1356,569
-540,737	544,695	0,065	0,321	1432,261	1356,569
-539,723	177,564	0,156	-0,284	1432,261	1356,569
-538,708	710,668	-0,033	-0,200	1432,261	1356,569
-537,693	9,433	0,208	0,101	1432,261	1356,569
-536,679	-9,019	-0,163	0,062	1432,261	1356,569
-535,664	266,635	0,095	0,250	1432,261	1356,569
-534,650	157,818	0,088	0,146	1432,261	1356,569
-533,635	126,016	0,067	-0,091	1432,261	1356,569
-532,621	162,470	-0,133	0,224	1432,261	1356,569
-531,606	105,971	0,085	0,102	1432,261	1356,569
-530,591	311,603	0,174	0,526	1432,261	1356,569
-529,577	338,837	0,034	-0,111	1432,261	1356,569
-528,562	94,130	-0,144	-0,158	1432,261	1356,569
-527,548	104,273	0,222	-0,263	1432,261	1356,569
-526,533	312,255	0,064	0,194	1432,261	1356,569
-525,518	-31,425	-0,057	0,015	1432,261	1356,569
-524,504	51,232	-0,111	-0,085	1432,261	1356,569
-523,489	681,718	0,031	0,182	1432,261	1356,569
-522,475	63,760	-0,086	0,074	1432,261	1356,569
-521,460	81,360	0,110	-0,110	1432,261	1356,569
-520,445	-85,576	-0,265	0,022	1432,261	1356,569
-519,431	68,325	0,271	0,243	1432,261	1356,569
-518,416	-200,000	-0,007	-0,222	1432,261	1356,569
-517,402	116,868	0,200	0,258	1432,261	1356,569
-516,387	-14,456	0,075	0,026	1432,261	1356,569
-515,372	-98,372	-0,313	-0,017	1432,261	1356,569
-514,358	61,912	-0,172	0,146	1432,261	1356,569
-513,343	-22,138	-0,397	-0,124	1432,261	1356,569
-512,329	14,978	0,246	-0,128	1432,261	1356,569
-511,314	329,035	0,005	-0,016	1432,261	1356,569
-510,299	-112,098	0,154	-0,005	1432,261	1356,569
-509,285	130,559	0,126	-0,178	1432,261	1356,569
-508,270	-10,237	0,198	0,074	1432,261	1356,569
-507,256	800,000	-0,004	-0,056	1432,261	1356,569
-506,241	-41,244	0,133	0,030	1432,261	1356,569
-505,226	-81,424	0,097	-0,009	1432,261	1356,569
-504,212	26,465	-0,227	-0,135	1432,261	1356,569
-503,197	-81,640	-0,272	0,025	1432,261	1356,569
-502,183	179,718	-0,003	0,005	1432,261	1356,569
-501,168	-11,390	-0,159	-0,058	1432,261	1356,569
-500,153	-48,943	0,320	0,062	1432,261	1356,569
-499,139	228,653	-0,138	-0,315	1432,261	1356,569
-498,124	83,765	0,249	-0,254	1432,261	1356,569
-497,110	800,000	0,034	-0,300	1432,261	1356,569
-496,095	72,195	0,162	0,150	1432,261	1356,569
-495,081	14,707	-0,211	0,110	1432,261	1356,569
-494,066	278,914	0,071	-0,195	1432,261	1356,569
-493,051	11,187	-0,129	0,064	1432,261	1356,569
-492,037	103,101	0,132	-0,155	1432,261	1356,569
-491,022	800,000	0,008	0,099	1432,261	1356,569
-490,008	72,023	0,132	0,122	1432,261	1356,569
-488,993	800,000	0,005	-0,064	1432,261	1356,569
-487,978	47,272	-0,278	0,206	1432,261	1356,569
-486,964	-143,854	-0,097	0,001	1432,261	1356,569
-485,949	143,631	-0,056	0,086	1432,261	1356,569
-484,935	-53,478	0,377	-0,067	1432,261	1356,569
-483,920	175,728	-0,091	-0,164	1432,261	1356,569
-482,905	38,361	-0,365	0,247	1432,261	1356,569
-481,891	403,570	-0,050	0,192	1432,261	1356,569
-480,876	117,212	-0,055	-0,071	1432,261	1356,569
-479,862	94,726	0,216	-0,239	1432,261	1356,569
-478,847	200,590	-0,047	0,096	1432,261	1356,569
-477,832	174,705	0,082	-0,147	1432,261	1356,569
-476,818	289,891	0,047	-0,132	1432,261	1356,569
-475,803	0,827	0,194	0,085	1432,261	1356,569
-474,789	333,482	0,028	0,090	1432,261	1356,569
-473,774	120,167	-0,081	0,107	1432,261	1356,569
-472,759	175,427	0,200	0,361	1432,261	1356,569
-471,745	77,931	0,194	-0,188	1432,261	1356,569
-470,730	752,140	0,035	-0,220	1432,261	1356,569
-469,716	461,840	-0,093	-0,401	1432,261	1356,569
-468,701	97,019	-0,235	-0,265	1432,261	1356,569
-467,686	497,838	-0,051	-0,233	1432,261	1356,569
-466,672	7,600	-0,425	-0,202	1432,261	1356,569
-465,657	342,634	-0,058	0,193	1432,261	1356,569
-464,643	172,377	-0,106	0,188	1432,261	1356,569
-463,628	421,757	-0,093	0,369	1432,261	1356,569
-462,613	-60,296	-0,110	-0,017	1432,261	1356,569
-461,599	114,735	-0,044	0,056	1432,261	1356,569
-460,584	308,187	-0,034	-0,101	1432,261	1356,569
-459,570	-34,434	-0,290	0,074	1432,261	1356,569
-458,555	473,297	0,021	-0,091	1432,261	1356,569
-457,540	800,000	0,010	0,102	1432,261	1356,569
-456,526	-12,604	-0,248	-0,090	1432,261	1356,569
-455,511	-18,614	0,334	-0,110	1432,261	1356,569
-454,497	74,764	-0,182	-0,173	1432,261	1356,569
-453,482	-31,796	0,354	-0,094	1432,261	1356,569
-452,468	85,338	0,227	-0,234	1432,261	1356,569
-451,453	231,453	0,119	0,276	1432,261	1356,569
-450,438	152,126	-0,185	0,295	1432,261	1356,569
-449,424	14,678	0,242	0,126	1432,261	1356,569
-448,409	-16,982	-0,195	-0,066	1432,261	1356,569
-447,395	681,739	0,018	-0,104	1432,261	1356,569
-446,380	99,002	-0,096	0,109	1432,261	1356,569
-445,365	31,717	0,191	0,121	1432,261	1356,569
-444,351	283,468	0,012	0,033	1432,261	1356,569
-443,336	62,529	0,123	0,105	1432,261	1356,569
-442,322	-19,753	-0,098	0,032	1432,261	1356,569
-441,307	-59,159	0,163	0,026	1432,261	1356,569
-440,292	194,010	0,084	0,165	1432,261	1356,569
-439,278	426,117	0,067	0,269	1432,261	1356,569
-438,263	5,290	-0,311	0,144	1432,261	1356,569
-437,249	296,824	0,033	0,096	1432,261	1356,569
-436,234	-5,497	-0,019	-0,008	1432,261	1356,569
-435,219	113,174	-0,310	-0,391	1432,261	1356,569
-434,205	254,899	-0,058	0,147	1432,261	1356,569
-433,190	343,799	0,106	-0,351	1432,261	1356,569
-432,176	25,594	0,258	0,152	1432,261	1356,569
-431,161	82,306	-0,158	0,159	1432,261	1356,569
-430,146	-36,772	-0,064	0,016	1432,261	1356,569
-429,132	13,889	-0,078	-0,040	1432,261	1356,569
-428,117	9,445	0,285	0,139	1432,261	1356,569
-427,103	-93,130	-0,198	0,013	1432,261	1356,569
-426,088	15,817	0,273	-0,144	1432,261	1356,569
-425,073	-57,986	0,071	0,011	1432,261	1356,569
-424,059	85,434	0,069	0,071	1432,261	1356,569
-423,044	555,024	-0,051	0,255	1432,261	1356,569
-422,030	82,274	0,190	0,191	1432,261	1356,569
-421,015	52,734	0,244	0,190	1432,261	1356,569
-420,000	-104,960	0,026	-0,001	1432,261	1356,569
-418,986	600,998	-0,074	-0,393	1432,261	1356,569
-417,971	-5,087	0,313	-0,126	1432,261	1356,569
-416,957	381,374	-0,008	-0,028	1432,261	1356,569
-415,942	98,419	0,198	0,225	1432,261	1356,569
-414,928	26,703	-0,267	-0,159	1432,261	1356,569
-413,913	70,378	-0,335	-0,306	1432,261	1356,569
-412,898	127,740	-0,093	0,129	1432,261	1356,569
-411,884	-51,683	0,229	-0,042	1432,261	1356,569
-410,869	-72,950	0,149	-0,017	1432,261	1356,569
-409,855	800,000	0,012	0,188	1432,261	1356,569
-408,840	73,707	0,249	-0,234	1432,261	1356,569
-407,825	89,978	-0,068	-0,073	1432,261	1356,569
-406,811	21,963	-0,133	-0,075	1432,261	1356,569
-405,796	215,497	0,029	-0,063	1432,261	1356,569
-404,782	19,327	-0,117	-0,064	1432,261	1356,569
-403,767	54,548	0,103	-0,082	1432,261	1356,569
-402,752	-83,445	0,121	-0,010	1432,261	1356,569
-401,738	-200,000	0,002	0,287	1432,261	1356,569
-400,723	61,127	0,117	0,099	1432,261	1356,569
-399,709	-23,531	-0,235	-0,072	1432,261	1356,569
-398,694	-51,330	0,234	-0,043	1432,261	1356,569
-397,679	107,050	0,146	0,176	1432,261	1356,569
-396,665	-15,247	0,155	0,054	1432,261	1356,569
-395,650	-88,588	-0,204	-0,015	1432,261	1356,569
-394,636	128,596	-0,047	0,065	1432,261	1356,569
-393,621	-108,056	-0,063	-0,002	1432,261	1356,569
-392,606	-13,987	0,301	-0,107	1432,261	1356,569
-391,592	36,294	0,103	-0,068	1432,261	1356,569
-390,577	-16,800	-0,069	0,023	1432,261	1356,569
-389,563	98,087	-0,082	0,093	1432,261	1356,569
-388,548	800,000	-0,033	-0,251	1432,261	1356,569
-387,533	-10,564	-0,102	0,038	1432,261	1356,569
-386,519	176,226	-0,027	0,048	1432,261	1356,569
-385,504	-74,900	0,339	-0,037	1432,261	1356,569
-384,490	6,534	0,159	0,075	1432,261	1356,569
-383,475	-70,034	0,187	-0,023	1432,261	1356,569
-382,460	48,216	0,242	-0,181	1432,261	1356,569
-381,446	158,662	-0,087	0,144	1432,261	1356,569
-380,431	154,352	0,212	0,343	1432,261	1356,569
-379,417	30,000	-0,181	-0,112	1432,261	1356,569
-378,402	258,181	0,113	-0,290	1432,261	1356,569
-377,388	150,030	0,136	-0,214	1432,261	1356,569
-376,373	151,979	-0,227	-0,363	1432,261	1356,569
-375,358	-110,890	0,314	0,011	1432,261	1356,569
-374,344	131,794	-0,241	-0,342	1432,261	1356,569
-373,329	-95,692	-0,238	-0,014	1432,261	1356,569
-372,315	-58,569	0,416	-0,066	1432,261	1356,569
-371,300	59,847	-0,178	0,148	1432,261	1356,569
-370,285	41,660	-0,067	-0,047	1432,261	1356,569
-369,271	527,135	0,053	0,253	1432,261	1356,569
-368,256	64,791	-0,205	0,178	1432,261	1356,569
-367,242	105,806	0,142	0,170	1432,261	1356,569
-366,227	82,168	0,056	-0,057	1432,261	1356,569
-365,212	-200,000	-0,001	0,167	1432,261	1356,569
-364,198	30,879	0,063	0,039	1432,261	1356,569
-363,183	146,030	-0,032	-0,049	1432,261	1356,569
-362,169	415,794	-0,018	-0,071	1432,261	1356,569
-361,154	-69,315	0,304	0,038	1432,261	1356,569
-360,139	-57,273	0,224	-0,037	1432,261	1356,569
-359,125	637,355	-0,078	-0,434	1432,261	1356,569
-358,110	280,551	0,022	-0,061	1432,261	1356,569
-357,096	604,357	-0,064	0,342	1432,261	1356,569
-356,081	36,418	-0,212	0,141	1432,261	1356,569
-355,066	-26,854	0,160	0,046	1432,261	1356,569
-354,052	95,541	0,221	0,246	1432,261	1356,569
-353,037	-16,560	0,292	0,100	1432,261	1356,569
-352,023	24,058	-0,160	0,093	1432,261	1356,569
-351,008	-42,418	0,296	-0,065	1432,261	1356,569
-349,993	104,610	-0,061	0,072	1432,261	1356,569
-348,979	783,133	-0,012	-0,075	1432,261	1356,569
-347,964	-78,090	0,257	-0,026	1432,261	1356,569
-346,950	800,000	-0,022	0,252	1432,261	1356,569
-345,935	-200,000	-0,006	-0,173	1432,261	1356,569
-344,920	59,292	0,198	-0,164	1432,261	1356,569
-343,906	155,697	-0,082	-0,133	1432,261	1356,569
-342,891	44,293	-0,126	0,091	1432,261	1356,569
-341,877	-20,057	0,052	0,017	1432,261	1356,569
-340,862	429,806	0,043	-0,173	1432,261	1356,569
-339,848	-47,261	-0,263	-0,053	1432,261	1356,569
-338,833	306,360	-0,165	-0,493	1432,261	1356,569
-337,818	64,515	0,215	0,186	1432,261	1356,569
-336,804	-67,096	0,300	0,039	1432,261	1356,569
-335,789	423,778	0,056	0,221	1432,261	1356,569
-334,775	100,568	-0,041	0,047	1432,261	1356,569
-333,760	-40,758	-0,273	-0,062	1432,261	1356,569
-332,745	135,423	0,244	-0,353	1432,261	1356,569
-331,731	387,358	0,061	0,226	1432,261	1356,569
-330,716	-60,493	0,072	-0,011	1432,261	1356,569
-329,702	-26,162	0,215	-0,063	1432,261	1356,569
-328,687	8,297	-0,186	-0,089	1432,261	1356,569
-327,672	-130,418	-0,198	0,003	1432,261	1356,569
-326,658	699,880	0,092	0,551	1432,261	1356,569
-325,643	224,235	0,157	-0,353	1432,261	1356,569
-324,629	772,392	-0,023	0,145	1432,261	1356,569
-323,614	800,000	-0,011	0,133	1432,261	1356,569
-322,599	-96,233	-0,228	-0,013	1432,261	1356,569
-321,585	183,981	0,159	0,298	1432,261	1356,569
-320,570	-75,068	-0,296	-0,032	1432,261	1356,569
-319,556	73,027	0,128	0,120	1432,261	1356,569
-318,541	61,529	0,120	0,101	1432,261	1356,569
-317,526	96,619	-0,235	-0,263	1432,261	1356,569
-316,512	26,481	0,026	-0,016	1432,261	1356,569
-315,497	-30,169	-0,286	0,078	1432,261	1356,569
-314,483	-35,469	0,176	0,044	1432,261	1356,569
-313,468	-79,323	-0,228	-0,022	1432,261	1356,569
-312,453	90,022	-0,372	0,398	1432,261	1356,569
-311,439	35,899	-0,108	0,071	1432,261	1356,569
-310,424	65,703	-0,136	0,120	1432,261	1356,569
-309,410	386,873	0,056	0,204	1432,261	1356,569
-308,395	227,296	0,018	-0,040	1432,261	1356,569
-307,380	204,022	-0,116	0,239	1432,261	1356,569
-306,366	-20,003	-0,274	-0,089	1432,261	1356,569
-305,351	-37,111	0,113	-0,027	1432,261	1356,569
-304,337	207,990	-0,132	-0,278	1432,261	1356,569
-303,322	11,012	-0,121	-0,060	1432,261	1356,569
-302,307	-91,309	0,034	0,002	1432,261	1356,569
-301,293	91,295	-0,033	-0,036	1432,261	1356,569
-300,278	800,000	-0,009	0,102	1432,261	1356,569
-299,264	212,618	-0,063	0,136	1432,261	1356,569
-298,249	-87,363	0,187	-0,014	1432,261	1356,569
-297,235	7,119	0,112	0,053	1432,261	1356,569
-296,220	-70,900	-0,257	0,031	1432,261	1356,569
-295,205	100,035	0,116	0,134	1432,261	1356,569
-294,191	-45,243	0,165	0,034	1432,261	1356,569
-293,176	64,396	0,142	-0,123	1432,261	1356,569
-292,162	345,198	0,058	0,191	1432,261	1356,569
-291,147	264,730	-0,047	-0,122	1432,261	1356,569
-290,132	-45,463	0,301	0,063	1432,261	1356,569
-289,118	539,907	0,043	0,212	1432,261	1356,569
-288,103	-86,255	0,288	-0,023	1432,261	1356,569
-287,089	60,582	0,108	-0,090	1432,261	1356,569
-286,074	603,482	0,043	-0,230	1432,261	1356,569
-285,059	5,376	0,274	0,127	1432,261	1356,569
-284,045	745,184	-0,049	-0,310	1432,261	1356,569
-283,030	78,736	0,184	-0,180	1432,261	1356,569
-282,016	101,306	0,113	-0,131	1432,261	1356,569
-281,001	800,000	0,028	-0,401	1432,261	1356,569
-279,986	400,053	0,025	-0,094	1432,261	1356,569
-278,972	-21,882	-0,063	-0,020	1432,261	1356,569
-277,957	60,498	-0,111	-0,093	1432,261	1356,569
-276,943	29,745	0,113	-0,070	1432,261	1356,569
-275,928	320,116	-0,034	-0,106	1432,261	1356,569
-274,913	-75,349	-0,236	0,025	1432,261	1356,569
-273,899	-45,998	-0,211	0,043	1432,261	1356,569
-272,884	240,606	0,129	-0,309	1432,261	1356,569
-271,870	43,653	0,316	-0,225	1432,261	1356,569
-270,855	-104,055	-0,041	0,002	1432,261	1356,569
-269,840	221,687	-0,129	0,286	1432,261	1356,569
-268,826	2,956	0,140	0,063	1432,261	1356,569
-267,811	-69,470	0,240	0,030	1432,261	1356,569
-266,797	-26,593	-0,168	0,049	1432,261	1356,569
-265,782	162,786	-0,263	-0,444	1432,261	1356,569
-264,767	349,470	-0,018	-0,062	1432,261	1356,569
-263,753	99,426	0,164	-0,188	1432,261	1356,569
-262,738	42,856	-0,343	0,243	1432,261	1356,569
-261,724	781,769	-0,072	0,466	1432,261	1356,569
-260,709	57,634	0,138	0,112	1432,261	1356,569
-259,695	-4,849	-0,136	-0,055	1432,261	1356,569
-258,680	800,000	0,007	0,074	1432,261	1356,569
-257,665	800,000	-0,012	0,148	1432,261	1356,569
-256,651	800,000	0,009	-0,065	1432,261	1356,569
-255,636	-55,531	-0,342	0,058	1432,261	1356,569
-254,622	731,817	0,009	0,055	1432,261	1356,569
-253,607	25,198	-0,242	0,142	1432,261	1356,569
-252,592	76,143	0,249	-0,239	1432,261	1356,569
-251,578	599,483	-0,025	0,132	1432,261	1356,569
-250,563	491,291	-0,025	0,112	1432,261	1356,569
-249,549	29,741	0,211	0,130	1422,757	1356,551
-248,534	-14,872	0,188	-0,061	1208,376	1244,711
-247,519	-144,502	0,323	-0,118	-0,504	0,009
-246,505	-42,279	-0,219	-0,075	-0,398	-0,242
-245,490	-200,000	0,032	0,410	-0,057	0,999
-244,476	-200,000	0,062	0,247	0,552	2,547
-243,461	-106,190	0,157	0,012	0,892	0,483
-242,446	-111,679	0,153	0,006	6,004	4,950
-241,432	118,810	0,115	0,152	30,202	28,273
-240,417	25,108	0,206	-0,119	215,085	207,114
-239,403	-49,601	-0,338	-0,062	992,395	975,774
-238,388	5,414	0,063	-0,033	1600,388	1366,491
-237,373	-43,405	-0,399	0,114	1170,349	839,433
-236,359	36,830	0,176	-0,158	822,141	577,258
-235,344	175,983	0,085	-0,207	821,180	576,159
-234,330	-10,045	-0,293	-0,148	821,358	576,624
-233,315	452,346	0,063	-0,357	821,837	577,148
-232,300	60,866	-0,148	-0,168	822,295	577,238
-231,286	254,667	-0,022	0,073	822,987	577,522
-230,271	37,020	-0,092	0,083	823,866	577,893
-229,257	-105,815	-0,186	-0,011	824,032	578,349
-228,242	23,994	-0,429	0,335	824,243	578,926
-227,227	175,142	0,011	-0,026	824,637	579,100
-226,213	82,438	-0,082	-0,111	825,307	579,687
-225,198	6,294	-0,267	-0,169	825,299	580,104
-224,184	-111,838	-0,013	-0,001	826,056	580,325
-223,169	9,382	0,240	-0,158	826,457	580,708
-222,155	17,438	-0,145	-0,105	827,082	581,088
-221,140	78,226	0,141	-0,185	827,658	581,396
-220,125	-70,300	-0,265	-0,043	828,055	581,821
-219,111	268,016	-0,078	-0,278	828,587	582,375
-218,096	130,243	0,110	0,208	829,213	583,050
-217,082	-19,315	0,379	0,167	829,701	582,948
-216,067	52,963	0,089	0,094	830,091	583,218
-215,052	-80,342	-0,209	0,026	830,565	583,943
-214,038	-11,447	-0,242	-0,120	831,033	584,290
-213,023	-48,726	0,043	-0,011	831,595	584,333
-212,009	-85,967	0,221	0,024	831,846	585,164
-210,994	123,926	-0,187	-0,341	832,728	585,428
-209,979	-63,643	0,153	-0,029	833,091	585,511
-208,965	-49,504	-0,184	0,048	833,348	586,131
-207,950	-79,665	-0,321	0,041	833,847	586,855
-206,936	48,503	0,072	0,073	834,084	586,991
-205,921	187,778	-0,033	-0,086	834,627	587,785
-204,906	800,000	-0,039	0,393	835,399	588,085
-203,892	-25,126	0,388	-0,156	836,139	588,367
-202,877	-42,214	-0,171	-0,051	836,515	588,827
-201,863	-28,780	0,090	0,034	837,222	589,252
-200,848	83,261	0,026	-0,035	837,615	588,931
-199,833	800,000	0,022	-0,196	838,054	590,059
-198,819	800,000	-0,022	0,207	838,725	589,987
-197,804	62,550	-0,100	-0,115	838,903	590,122
-196,790	-76,550	0,210	-0,029	839,628	590,985
-195,775	-75,912	0,345	0,049	839,859	591,290
-194,760	15,859	-0,175	-0,124	840,258	591,956
-193,746	349,600	0,093	0,422	840,932	592,399
-192,731	59,393	0,171	-0,191	841,371	592,637
-191,717	-108,522	0,211	-0,011	841,819	593,386
-190,702	59,740	0,095	0,106	841,830	593,431
-189,687	78,155	-0,186	0,243	842,538	594,071
-188,673	3,001	-0,233	-0,140	843,759	595,132
-187,658	-46,832	0,268	0,073	848,253	597,702
-186,644	194,031	0,137	0,361	869,832	616,609
-185,629	63,829	-0,206	0,236	933,138	665,133
-184,614	-117,160	0,346	0,013	986,380	680,806
-183,600	-46,415	-0,072	-0,021	989,032	669,853
-182,585	168,908	-0,039	0,096	987,730	667,169
-181,571	83,151	-0,192	0,273	988,470	667,511
-180,556	14,198	-0,133	0,097	989,447	667,734
-179,542	-26,519	-0,287	-0,117	989,657	668,241
-178,527	-13,650	-0,254	-0,127	990,341	668,491
-177,512	-4,117	0,299	0,171	992,436	670,284
-176,498	2,523	-0,265	-0,166	1000,204	676,009
-175,483	209,106	0,037	-0,108	1018,329	689,328
-174,469	-47,063	0,089	-0,025	1035,363	699,877
-173,454	16,771	-0,020	0,015	1038,702	701,450
-172,439	154,705	0,079	0,179	1039,716	701,767
-171,425	12,120	0,113	-0,080	1040,250	702,128
-170,410	64,502	-0,192	-0,234	1040,507	702,615
-169,396	108,333	-0,172	0,294	1040,813	703,208
-168,381	121,131	-0,266	0,494	1041,621	703,958
-167,366	-55,995	0,121	0,028	1043,368	706,652
-166,352	615,789	0,012	0,092	1044,780	710,110
-165,337	-22,293	-0,274	-0,120	1044,202	707,089
-164,323	-11,319	-0,181	0,094	1043,418	703,998
-163,308	248,895	0,075	-0,261	1044,445	705,207
-162,293	-113,205	0,267	0,012	1044,973	705,698
-161,279	-0,469	-0,233	0,140	1045,797	706,549
-160,264	-23,165	0,258	0,111	1046,266	707,304
-159,250	-49,245	0,253	0,068	1046,845	707,783
-158,235	800,000	-0,012	0,123	1047,746	709,016
-157,220	-95,661	0,285	0,024	1048,966	712,855
-156,206	-90,268	0,069	-0,007	1051,359	720,538
-155,191	280,083	0,072	-0,272	1054,342	729,984
-154,177	800,000	-0,013	-0,248	1056,934	736,651
-153,162	-28,709	0,224	0,085	1058,660	741,234
-152,147	-37,057	0,222	-0,073	1060,392	745,653
-151,133	48,544	-0,153	0,153	1061,866	750,059
-150,118	268,718	0,080	0,283	1063,794	753,077
-149,104	257,765	-0,006	-0,021	1064,517	755,135
-148,089	362,728	0,033	0,153	1064,867	756,058
-147,074	648,984	0,069	0,523	1065,693	756,812
-146,060	47,691	-0,290	-0,287	1065,748	757,284
-145,045	-70,723	-0,382	-0,061	1067,269	757,880
-144,031	13,713	0,247	0,169	1067,530	758,542
-143,016	-60,290	-0,067	-0,014	1068,513	759,241
-142,002	140,906	-0,033	0,065	1068,727	760,138
-140,987	-61,543	0,100	-0,020	1069,460	759,249
-139,972	250,698	-0,054	-0,179	1070,077	759,820
-138,958	259,280	0,037	0,127	1070,554	759,986
-137,943	102,643	0,132	-0,206	1071,502	760,725
-136,929	-42,950	0,192	0,056	1071,847	760,989
-135,914	-112,987	-0,391	-0,017	1072,133	760,780
-134,899	37,106	0,268	-0,239	1072,717	761,144
-133,885	72,655	0,248	0,308	1073,577	762,817
-132,870	181,083	0,044	0,108	1075,422	767,417
-131,856	-101,827	-0,245	0,016	1076,283	769,814
-130,841	137,921	0,082	0,160	1076,476	768,180
-129,826	3,011	-0,293	0,175	1077,466	769,331
-128,812	-39,823	-0,091	0,028	1078,313	770,497
-127,797	-27,133	0,179	-0,069	1078,874	769,759
-126,783	-0,159	0,254	-0,145	1080,440	772,623
-125,768	77,341	-0,068	-0,087	1081,019	771,999
-124,753	62,239	-0,060	-0,068	1080,866	769,268
-123,739	434,370	-0,057	0,311	1081,015	768,674
-122,724	-80,741	0,243	-0,030	1081,044	768,551
-121,710	109,923	0,142	-0,233	1081,862	770,311
-120,695	-12,673	0,240	0,115	1082,740	770,916
-119,680	-99,073	-0,311	0,022	1083,485	771,247
-118,666	23,421	0,140	0,108	1084,364	771,909
-117,651	65,034	0,054	-0,062	1085,120	773,411
-116,637	75,702	-0,158	-0,200	1086,258	775,636
-115,622	12,833	0,286	-0,193	1086,344	775,623
-114,607	26,371	0,328	0,259	1086,537	775,093
-113,593	-92,223	0,236	0,021	1087,594	774,635
-112,578	39,983	-0,267	0,244	1088,016	775,772
-111,564	-102,702	0,172	0,011	1088,822	777,780
-110,549	-10,884	-0,094	-0,046	1089,346	777,835
-109,534	-30,149	-0,274	-0,100	1089,849	777,227
-108,520	93,822	0,093	0,136	1090,118	775,563
-107,505	9,957	0,057	0,037	1089,918	773,715
-106,491	115,336	0,064	-0,109	1089,972	769,634
-105,476	-36,685	-0,223	0,074	1088,683	765,755
-104,462	-30,692	-0,509	-0,187	1088,446	761,897
-103,447	508,459	-0,020	0,126	1087,256	755,011
-102,432	205,631	0,021	0,060	1085,494	746,108
-101,418	18,524	-0,087	0,065	1084,513	740,656
-100,403	99,161	-0,115	-0,183	1084,436	737,994
-99,389	11,347	0,026	-0,018	1084,568	737,922
-98,374	252,775	0,051	0,179	1085,709	739,044
-97,359	-5,990	0,190	0,105	1086,245	738,600
-96,345	25,640	-0,272	0,223	1086,295	738,492
-95,330	-31,080	-0,284	0,107	1087,547	739,947
-94,316	95,985	-0,146	0,226	1088,330	740,770
-93,301	79,701	0,158	0,215	1089,535	744,603
-92,286	-9,309	-0,159	0,083	1090,999	747,755
-91,272	2,023	-0,063	0,039	1090,905	744,635
-90,257	-15,121	-0,215	0,104	1090,468	742,821
-89,243	53,353	-0,022	-0,024	1091,300	743,602
-88,228	55,968	0,134	0,150	1091,964	744,090
-87,213	53,688	-0,106	0,116	1092,765	744,574
-86,199	-43,973	0,257	0,076	1093,334	745,537
-85,184	214,625	0,052	0,156	1094,605	746,091
-84,170	-38,727	-0,320	0,105	1095,886	747,466
-83,155	63,513	0,104	-0,124	1099,519	750,071
-82,140	237,516	-0,035	0,116	1103,981	752,432
-81,126	-3,828	-0,172	-0,098	1104,798	753,363
-80,111	110,428	-0,147	0,253	1105,195	754,203
-79,097	-66,147	-0,097	0,018	1106,128	754,390
-78,082	-50,587	-0,247	0,064	1106,849	754,882
-77,067	-94,948	0,247	0,021	1107,432	754,811
-76,053	37,186	-0,133	0,123	1107,533	756,753
-75,038	192,749	-0,078	0,212	1109,172	760,246
-74,024	99,336	0,111	0,176	1109,988	761,047
-73,009	800,000	0,016	0,207	1110,200	757,748
-71,994	-67,980	-0,071	0,013	1111,271	759,511
-70,980	68,855	-0,144	-0,178	1113,842	768,642
-69,965	63,217	-0,240	0,273	1121,589	801,563
-68,951	800,000	-0,006	-0,092	1137,279	860,095
-67,936	67,912	-0,365	0,403	1144,081	875,501
-66,922	59,153	0,067	-0,072	1133,129	830,491
-65,907	41,661	-0,224	0,209	1125,270	801,509
-64,892	-26,880	0,282	0,109	1125,651	801,703
-63,878	21,379	-0,254	0,190	1125,870	804,451
-62,863	-144,188	0,122	-0,001	1127,190	806,589
-61,849	657,186	-0,133	-1,001	1127,983	808,380
-60,834	144,770	-0,791	1,599	1129,160	810,678
-59,819	800,000	0,169	-1,732	1130,416	811,403
-58,805	45,825	-1,521	-1,463	1131,181	812,457
-57,790	301,856	0,574	-2,225	1131,132	813,578
-56,776	187,346	3,146	7,919	1132,272	813,983
-55,761	800,000	116,874	1257,904	1132,865	814,305
-54,746	138,669	1735,672	3382,001	1133,562	814,657
-53,732	54,918	3238,965	3396,288	1133,563	814,912
-52,717	47,723	3253,684	3190,284	1134,219	814,429
-51,703	27,166	2879,550	2281,569	1134,218	814,391
-50,688	21,147	2545,921	1884,775	1135,152	814,958
-49,673	18,457	2421,941	1738,232	1135,758	815,157
-48,659	18,766	2394,781	1726,278	1136,174	814,835
-47,644	20,198	2386,233	1748,227	1136,707	815,630
-46,630	17,926	2374,858	1694,700	1137,814	816,202
-45,615	17,789	2370,470	1687,990	1138,498	817,101
-44,600	17,764	2366,205	1685,124	1139,531	817,521
-43,586	17,778	2363,091	1681,951	1139,875	818,366
-42,571	17,844	2360,245	1679,308	1140,703	819,903
-41,557	17,858	2357,968	1677,579	1141,253	820,488
-40,542	17,891	2355,706	1675,206	1142,175	821,847
-39,527	17,889	2353,931	1673,898	1143,319	822,671
-38,513	17,941	2350,428	1671,910	1143,821	823,284
-37,498	17,895	2347,539	1670,023	1144,455	823,210
-36,484	17,871	2345,505	1667,894	1144,832	823,585
-35,469	17,851	2342,942	1666,768	1145,759	823,713
-34,454	17,774	2340,999	1664,706	1146,501	823,837
-33,440	17,800	2339,373	1664,732	1146,067	823,194
-32,425	17,600	2336,591	1662,953	1146,585	821,523
-31,411	17,508	2334,000	1661,710	1146,485	820,262
-30,396	17,402	2332,159	1660,103	1147,091	819,818
-29,381	17,898	2330,787	1658,390	1149,027	826,389
-28,367	20,606	2328,293	1657,185	1157,898	859,251
-27,352	23,381	2327,009	1656,442	1168,190	894,833
-26,338	21,212	2324,905	1654,349	1163,300	869,543
-25,323	16,283	2323,165	1653,101	1148,360	810,175
-24,309	14,031	2321,666	1651,156	1140,922	783,845
-23,294	13,871	2319,562	1650,485	1140,879	781,911
-22,279	13,863	2318,369	1648,927	1141,256	782,425
-21,265	14,100	2317,243	1648,697	1143,104	785,676
-20,250	14,054	2315,294	1646,519	1142,638	785,296
-19,236	13,764	2312,800	1644,084	1143,111	783,178
-18,221	13,765	2310,972	1643,508	1143,736	783,275
-17,206	13,787	2308,480	1641,478	1144,580	784,180
-16,192	13,838	2307,223	1641,039	1144,904	784,671
-15,177	13,788	2305,893	1639,255	1145,498	785,005
-14,163	13,836	2303,539	1638,605	1146,938	785,962
-13,148	13,792	2302,368	1637,035	1152,429	789,654
-12,133	13,655	2300,605	1636,041	1183,096	809,196
-11,119	13,175	2299,921	1634,947	1240,645	843,931
-10,104	12,743	2297,720	1633,467	1277,244	864,205
-9,090	12,738	2295,891	1632,089	1287,619	871,216
-8,075	12,642	2294,548	1630,441	1296,855	876,812
-7,060	12,561	2293,750	1629,435	1305,575	882,069
-6,046	12,617	2291,004	1628,394	1315,200	888,678
-5,031	12,721	2290,084	1627,383	1326,218	897,468
-4,017	13,684	2288,307	1625,963	1358,029	929,925
-3,002	18,158	2287,670	1625,260	1527,169	1103,383
-1,987	20,873	2285,471	1623,968	1973,658	1471,609
-0,973	17,308	2283,126	1622,148	2359,530	1687,628
0,042	16,352	2268,759	1618,158	2424,344	1707,813
1,056	17,101	2159,727	1554,381	2427,843	1710,039
2,071	15,041	2017,862	1416,664	2429,628	1711,678
3,086	12,668	1959,185	1336,404	2431,292	1712,913
4,100	12,129	1949,416	1321,021	2432,906	1714,004
5,115	12,085	1946,509	1318,053	2434,228	1715,309
6,129	11,991	1943,202	1314,649	2436,627	1716,537
7,144	12,020	1939,997	1312,401	2437,700	1718,004
8,159	11,974	1936,342	1309,985	2439,969	1718,568
9,173	12,003	1932,959	1307,600	2440,702	1719,816
10,188	12,319	1901,303	1291,135	2442,747	1721,329
11,202	12,670	1824,013	1243,504	2444,045	1722,911
12,217	12,653	1771,181	1207,562	2446,875	1724,420
13,231	12,600	1760,864	1199,389	2447,892	1725,669
14,246	12,552	1758,502	1196,960	2449,863	1727,224
15,261	12,518	1757,306	1195,589	2451,481	1728,460
16,275	12,552	1755,703	1194,779	2453,005	1729,844
17,290	12,520	1754,173	1193,383	2455,270	1731,268
18,304	12,543	1753,796	1193,254	2456,994	1732,791
19,319	12,703	1753,373	1195,402	2459,354	1734,311
20,334	13,066	1753,875	1200,306	2460,407	1736,145
21,348	12,811	1751,120	1195,353	2462,708	1736,816
22,363	12,490	1747,983	1188,168	2464,374	1738,524
23,377	12,476	1747,459	1187,646	2465,761	1739,442
24,392	12,441	1746,213	1186,252	2467,736	1740,893
25,407	12,436	1745,104	1185,228	2469,518	1742,443
26,421	12,519	1744,728	1186,320	2472,146	1744,079
27,436	12,555	1742,806	1185,520	2474,353	1745,659
28,450	12,583	1741,927	1185,194	2476,043	1747,054
29,465	12,731	1741,808	1187,369	2478,432	1748,573
30,480	13,330	1743,674	1196,689	2479,848	1750,565
31,494	14,185	1746,764	1211,096	2481,484	1752,029
32,509	14,811	1748,726	1222,553	2484,522	1752,898
33,523	15,187	1750,148	1228,914	2487,234	1755,065
34,538	15,536	1750,529	1234,464	2489,746	1756,661
35,553	15,914	1751,084	1240,584	2492,296	1758,287
36,567	16,189	1751,442	1244,775	2494,939	1760,345
37,582	16,424	1751,153	1247,288	2496,300	1762,404
38,596	16,449	1749,908	1247,267	2500,310	1764,535
39,611	16,472	1748,202	1246,384	2502,911	1766,375
40,626	16,528	1747,283	1245,835	2505,667	1769,343
41,640	16,526	1746,438	1245,195	2508,950	1771,686
42,655	16,485	1745,641	1244,379	2512,782	1773,886
43,669	16,643	1743,914	1244,755	2515,910	1777,129
44,684	16,651	1743,437	1243,842	2519,313	1780,529
45,699	16,983	1741,870	1242,414	2524,223	1791,482
46,713	18,769	1740,106	1239,960	2534,210	1838,636
47,728	17,448	1739,661	1239,340	2543,526	1817,366
48,742	17,402	1738,773	1238,402	2583,522	1845,377
49,757	20,193	1737,698	1237,584	2737,538	2020,512
50,771	27,308	1736,171	1235,106	3034,989	2430,936
51,786	46,946	1734,646	1233,079	3287,622	3231,668
52,801	58,344	1734,035	1232,277	3108,887	3403,202
53,815	144,309	1735,111	1239,184	1584,638	3210,643
54,830	800,000	1734,481	1242,341	102,216	1125,507
55,844	161,716	1732,309	1238,450	3,122	6,955
56,859	800,000	1730,784	1237,222	0,245	-2,481
57,874	30,827	1728,570	1236,116	-1,741	-1,442
58,888	333,281	1726,074	1233,590	0,300	-1,282
59,903	800,000	1725,602	1235,131	-0,137	1,399
60,917	-200,000	1724,422	1233,392	0,022	-1,015
61,932	-144,897	1721,802	1227,904	0,127	-0,001
62,947	142,358	1719,920	1223,037	0,146	0,293
63,961	-27,829	1718,531	1221,851	-0,030	0,012
64,976	158,302	1717,512	1221,455	-0,158	0,347
65,990	15,831	1716,542	1221,787	-0,114	0,080
67,005	74,703	1715,561	1219,880	-0,131	-0,165
68,020	114,581	1714,101	1218,609	0,024	-0,041
69,034	50,967	1713,917	1218,853	0,220	-0,224
70,049	-77,290	1713,103	1220,449	-0,266	0,036
71,063	-117,900	1712,182	1219,844	-0,462	0,016
72,078	29,923	1710,589	1217,601	-0,170	0,140
73,093	3,792	1709,083	1214,764	-0,119	-0,072
74,107	67,451	1708,528	1214,177	0,158	0,188
75,122	83,748	1707,930	1214,765	0,305	0,413
76,136	258,517	1706,603	1214,234	-0,067	0,228
77,151	-19,912	1705,101	1212,454	-0,059	0,026
78,166	-54,204	1703,365	1209,240	-0,229	-0,053
79,180	-82,617	1701,889	1204,344	0,032	-0,004
80,195	153,432	1698,225	1197,011	-0,019	-0,040
81,209	27,274	1696,359	1189,585	-0,099	0,080
82,224	167,813	1693,080	1182,460	-0,062	-0,145
83,239	-13,168	1690,029	1172,494	0,207	0,101
84,253	-73,259	1683,939	1156,663	0,210	0,033
85,268	-200,000	1680,592	1144,196	0,001	-0,231
86,282	-64,156	1678,175	1137,167	0,230	0,045
87,297	107,195	1677,087	1135,089	0,204	-0,346
88,312	198,216	1676,589	1134,640	-0,131	0,370
89,326	57,911	1674,888	1132,775	-0,142	0,163
90,341	-58,203	1673,272	1131,652	0,158	-0,035
91,355	-72,324	1672,807	1131,871	0,278	0,045
92,370	229,298	1671,967	1130,291	-0,058	-0,187
93,384	14,861	1672,121	1134,437	0,224	0,163
94,399	-96,150	1672,650	1139,616	-0,236	-0,019
95,414	-12,225	1670,286	1134,694	-0,297	-0,151
96,428	-79,319	1668,543	1129,468	0,224	0,030
97,443	311,790	1667,251	1128,316	0,048	0,205
98,457	86,129	1667,179	1127,265	0,193	0,281
99,472	104,211	1665,736	1126,953	-0,092	0,153
100,487	26,311	1664,950	1126,704	0,089	0,074
101,501	84,269	1664,537	1126,029	0,103	-0,148
102,516	314,869	1663,053	1125,165	-0,011	-0,047
103,530	58,661	1660,101	1122,926	-0,119	-0,138
104,545	118,834	1657,973	1121,398	-0,126	-0,232
105,560	203,564	1656,359	1120,715	0,067	0,193
106,574	-59,858	1655,112	1119,521	-0,336	-0,073
107,589	-18,826	1653,438	1118,552	-0,287	0,132
108,603	75,340	1652,225	1117,241	0,189	0,253
109,618	-112,223	1651,355	1116,371	-0,172	-0,008
110,633	-18,236	1650,882	1116,182	-0,300	0,139
111,647	-53,199	1651,264	1120,541	-0,228	0,057
112,662	64,619	1649,828	1121,124	-0,099	0,119
113,676	98,954	1646,881	1114,634	0,064	-0,102
114,691	-10,395	1646,358	1113,128	0,084	0,044
115,706	-72,491	1646,981	1116,950	0,053	0,008
116,720	-6,374	1656,897	1148,553	0,359	-0,194
117,735	141,581	1680,470	1240,521	0,009	0,017
118,749	-200,000	1688,243	1286,393	-0,000	-0,110
119,764	170,086	1670,597	1225,944	-0,015	0,034
120,779	50,463	1656,898	1173,927	0,150	-0,153
121,793	800,000	1654,409	1165,448	0,020	-0,189
122,808	-68,156	1653,047	1165,974	-0,201	0,035
123,822	346,057	1652,498	1167,851	-0,056	0,249
124,837	-0,116	1652,195	1169,147	0,121	-0,070
125,852	463,829	1651,743	1170,446	0,038	0,220
126,866	-200,000	1650,904	1171,090	0,007	0,224
127,881	47,436	1649,773	1170,518	0,216	0,214
128,895	51,220	1648,472	1170,103	-0,192	0,197
129,910	-66,417	1647,455	1169,365	-0,181	-0,032
130,924	-44,617	1646,322	1168,778	-0,448	-0,126
131,939	-4,236	1645,153	1167,650	0,045	0,024
132,954	257,891	1643,749	1166,431	-0,089	0,301
133,968	98,821	1642,186	1163,784	-0,084	-0,127
134,983	186,154	1641,106	1161,338	-0,059	-0,150
135,997	-88,897	1639,560	1160,601	-0,112	0,011
137,012	-119,922	1638,274	1159,966	0,331	0,011
138,027	14,468	1637,436	1157,934	0,165	0,114
139,041	-50,061	1635,387	1156,449	-0,119	0,030
140,056	-56,466	1632,806	1154,533	-0,360	-0,080
141,070	-47,195	1630,874	1153,295	-0,189	0,051
142,085	-36,998	1630,284	1152,702	0,160	-0,052
143,100	63,003	1629,255	1151,997	-0,053	0,061
144,114	112,598	1628,511	1152,197	-0,057	0,096
145,129	94,961	1627,497	1152,891	0,116	-0,172
146,143	-101,217	1627,165	1153,019	0,027	0,002
147,158	-82,971	1625,442	1151,727	-0,128	0,015
148,173	-85,873	1624,397	1150,696	0,131	-0,014
149,187	37,260	1622,782	1149,793	-0,144	-0,129
150,202	433,430	1622,664	1149,047	-0,020	0,109
151,216	56,263	1621,229	1147,623	-0,171	0,184
152,231	25,153	1620,364	1146,313	0,077	0,060
153,246	-200,000	1618,390	1144,731	-0,001	0,158
154,260	45,803	1616,827	1140,742	0,158	0,154
155,275	-105,347	1614,644	1136,873	0,280	0,016
156,289	345,511	1612,415	1132,710	0,070	-0,313
157,304	-121,379	1611,353	1132,528	-0,108	-0,003
158,319	-11,881	1622,821	1169,805	-0,125	-0,060
159,333	-200,000	1637,888	1231,771	-0,006	0,150
160,348	-65,080	1629,233	1215,714	-0,029	-0,005
161,362	14,266	1606,450	1131,795	-0,095	-0,066
162,377	37,183	1593,644	1081,992	0,189	-0,177
163,392	7,717	1591,063	1071,955	-0,199	0,133
164,406	129,891	1589,426	1068,756	-0,072	-0,142
165,421	47,850	1589,088	1072,851	0,146	0,152
166,435	-133,430	1588,220	1072,274	-0,043	0,001
167,450	-17,598	1585,851	1067,218	-0,093	-0,044
168,464	34,874	1585,194	1065,342	-0,078	0,072
169,479	17,030	1583,713	1064,989	-0,057	-0,043
170,494	800,000	1582,622	1063,859	0,023	0,246
171,508	0,603	1581,560	1063,254	-0,065	-0,040
172,523	0,809	1580,675	1062,162	-0,174	0,107
173,537	79,653	1561,779	1054,584	-0,102	-0,141
174,552	-23,001	1446,336	985,935	0,190	-0,081
175,567	413,413	1316,606	895,556	-0,031	0,171
176,581	-67,807	1269,082	859,421	-0,166	-0,030
177,596	-34,226	1262,461	855,040	0,183	0,065
178,610	-72,649	1259,996	853,792	0,261	-0,042
179,625	-106,022	1259,165	852,978	-0,039	0,002
180,640	-153,907	1258,249	852,298	0,085	0,000
181,654	24,305	1257,655	852,141	0,200	-0,163
182,669	-121,167	1258,125	854,299	0,308	0,010
183,683	52,448	1255,833	875,638	0,111	-0,117
184,698	546,638	1099,885	812,578	-0,021	-0,131
185,713	145,238	901,691	652,520	-0,071	-0,142
186,727	-13,398	834,109	588,883	-0,038	0,018
187,742	-20,976	823,966	582,734	0,180	-0,077
188,756	-139,849	822,219	581,430	-0,181	-0,002
189,771	339,389	821,252	580,237	0,052	0,230
190,786	-3,121	821,081	580,241	0,277	0,154
191,800	-72,120	819,705	579,566	0,156	-0,024
192,815	-121,681	819,576	578,843	0,159	0,005
193,829	-81,964	819,092	578,610	0,224	-0,027
194,844	-53,796	818,250	578,231	-0,141	0,033
195,859	195,384	817,724	577,716	0,028	-0,075
196,873	-82,838	817,201	577,384	-0,343	0,040
197,888	33,440	816,755	576,922	-0,133	0,115
198,902	800,000	816,159	576,512	-0,012	-0,213
199,917	-8,274	815,569	576,077	0,360	-0,186
200,932	39,833	815,755	575,565	-0,158	-0,146
201,946	187,440	814,879	575,515	-0,022	0,056
202,961	-83,556	814,307	574,950	-0,314	-0,036
203,975	69,243	813,851	574,509	0,052	0,063
204,990	-16,666	813,413	574,333	-0,123	0,056
206,004	65,313	812,986	574,132	-0,094	0,110
207,019	-93,950	812,597	573,499	-0,221	-0,019
208,034	237,113	811,837	573,257	0,126	-0,399
209,048	-34,237	811,392	572,514	-0,073	-0,025
210,063	-70,750	811,129	572,376	0,276	-0,045
211,077	9,919	810,610	571,288	0,100	-0,066
212,092	217,428	809,772	571,002	-0,083	0,242
213,107	124,835	809,739	570,884	0,055	-0,101
214,121	360,473	809,037	570,626	-0,050	-0,232
215,136	553,086	808,600	570,282	-0,031	0,211
216,150	112,181	807,704	569,553	0,025	-0,043
217,165	800,000	807,458	569,279	-0,020	0,211
218,180	382,270	807,107	568,809	0,076	0,374
219,194	47,947	806,610	568,766	0,216	-0,216
220,209	113,836	806,078	568,442	0,108	0,184
221,223	146,156	805,672	567,569	0,038	0,079
222,238	353,419	805,495	567,427	-0,053	-0,240
223,253	93,415	804,610	567,271	-0,106	-0,156
224,267	-19,943	804,506	566,908	-0,368	0,160
225,282	137,216	803,797	566,499	0,044	-0,087
226,296	-88,750	803,460	566,113	-0,081	0,008
227,311	54,829	803,261	565,910	0,134	-0,143
228,326	367,319	802,506	565,420	-0,026	-0,123
229,340	-56,028	801,980	564,921	-0,388	0,087
230,355	92,437	801,731	564,897	-0,033	0,048
231,369	320,395	801,782	564,336	0,069	-0,287
232,384	-18,345	800,742	563,832	-0,242	-0,108
233,399	22,927	799,986	563,443	-0,367	0,283
234,413	-96,351	799,581	563,533	-0,099	-0,008
235,428	-44,356	803,408	565,465	0,260	0,074
236,442	86,163	1183,129	854,664	-0,093	0,127
237,457	115,753	1598,403	1411,030	-0,090	0,124
238,472	294,964	899,770	926,737	-0,020	-0,052
239,486	106,918	143,110	136,357	-0,262	0,314
240,501	154,267	18,181	17,326	-0,013	0,021
241,515	99,063	3,998	3,699	0,131	0,153
242,530	56,706	0,298	0,087	-0,101	-0,266
243,545	-200,000	0,035	2,487	-0,068	0,118
244,559	-7,664	-0,382	0,735	-0,085	-0,016
245,574	126,823	-0,440	-0,113	-0,059	-0,298
246,588	7,327	-0,547	-0,284	-0,024	-0,021
247,603	9,662	1314,949	1348,121	0,157	-0,071
248,617	-148,639	1430,191	1348,324	0,200	-0,001
