DTS Sentinel unit serial number:	SN409016Multiplexer serial number:	ORYXHardware model number:	OX4-SRSoftware version number:	ORYX F/W v4,00 Oryx Data Collector v3.7.3data status	okinstallation	mike1234differential loss correction	combinedforward channel	channel 1reverse channel	channel 1 reversedate	2020/03/06time	19:33:47forward acquisition time	60,00reverse acquisition time	60,00gamma	499,5406k internal	0,2514k external	0,2514temperature offset calibration	1,0000default loss term (dB/km)	0,3750temperature slope calibration	0,0000multiplexer offset coefficient	1,0000multiplexer slope coefficient	1,0000fibre end	0,00T internal ref (°C)	15,55T ext. ref 1 (°C)	7,14T ext. ref 2 (°C)	6,75length (m)	temperature (°C)	forward Stokes	forward anti-Stokes	reverse Stokes	reverse anti-Stokes-746,700	800,000	0,037	0,282	1432,292	1357,948
-745,685	-2,472	-0,215	0,089	1432,292	1357,948
-744,671	24,911	-0,095	0,056	1432,292	1357,948
-743,656	-200,000	0,015	0,382	1432,292	1357,948
-742,642	10,638	0,214	0,106	1432,292	1357,948
-741,627	366,132	-0,111	0,388	1432,292	1357,948
-740,612	800,000	-0,005	-0,041	1432,292	1357,948
-739,598	800,000	-0,048	0,388	1432,292	1357,948
-738,583	137,559	0,110	-0,161	1432,292	1357,948
-737,569	-41,523	-0,115	0,026	1432,292	1357,948
-736,554	-87,879	0,235	0,018	1432,292	1357,948
-735,539	506,987	-0,039	0,181	1432,292	1357,948
-734,525	75,017	0,182	0,172	1432,292	1357,948
-733,510	136,635	0,224	0,326	1432,292	1357,948
-732,496	-54,680	0,382	0,066	1432,292	1357,948
-731,481	40,292	-0,448	-0,308	1432,292	1357,948
-730,466	163,236	-0,049	-0,082	1432,292	1357,948
-729,452	-27,997	-0,183	-0,052	1432,292	1357,948
-728,437	127,838	-0,158	0,219	1432,292	1357,948
-727,423	-200,000	0,008	0,300	1432,292	1357,948
-726,408	-38,719	-0,364	-0,086	1432,292	1357,948
-725,394	15,262	-0,199	0,104	1432,292	1357,948
-724,379	254,677	0,019	-0,049	1432,292	1357,948
-723,364	217,868	-0,117	-0,255	1432,292	1357,948
-722,350	187,921	-0,114	-0,218	1432,292	1357,948
-721,335	-200,000	-0,001	-0,177	1432,292	1357,948
-720,321	151,002	-0,209	-0,331	1432,292	1357,948
-719,306	147,943	-0,038	-0,060	1432,292	1357,948
-718,291	21,975	-0,111	0,063	1432,292	1357,948
-717,277	173,566	-0,044	0,079	1432,292	1357,948
-716,262	97,429	0,160	-0,180	1432,292	1357,948
-715,248	800,000	-0,016	-0,209	1432,292	1357,948
-714,233	-116,093	-0,172	0,005	1432,292	1357,948
-713,218	162,980	-0,201	0,340	1432,292	1357,948
-712,204	-70,035	0,271	0,033	1432,292	1357,948
-711,189	32,286	-0,055	0,035	1432,292	1357,948
-710,175	-28,576	-0,125	-0,035	1432,292	1357,948
-709,160	800,000	0,039	-0,271	1432,292	1357,948
-708,145	343,001	0,075	-0,246	1432,292	1357,948
-707,131	41,997	-0,115	0,080	1432,292	1357,948
-706,116	68,075	-0,053	0,048	1432,292	1357,948
-705,102	30,065	-0,059	0,036	1432,292	1357,948
-704,087	-200,000	0,005	-0,107	1432,292	1357,948
-703,072	23,128	-0,175	-0,100	1432,292	1357,948
-702,058	99,484	-0,229	-0,261	1432,292	1357,948
-701,043	438,465	-0,013	0,055	1432,292	1357,948
-700,029	84,177	-0,081	0,083	1432,292	1357,948
-699,014	163,395	0,200	0,339	1432,292	1357,948
-697,999	82,860	-0,256	-0,258	1432,292	1357,948
-696,985	-102,411	0,301	0,014	1432,292	1357,948
-695,970	59,356	0,037	-0,030	1432,292	1357,948
-694,956	-168,565	0,378	-0,000	1432,292	1357,948
-693,941	30,435	-0,153	0,095	1432,292	1357,948
-692,926	148,596	0,071	-0,111	1432,292	1357,948
-691,912	131,891	-0,123	0,175	1432,292	1357,948
-690,897	-200,000	-0,004	-0,262	1432,292	1357,948
-689,883	63,836	-0,211	0,182	1432,292	1357,948
-688,868	191,692	0,097	0,189	1432,292	1357,948
-687,854	-22,699	-0,235	0,073	1432,292	1357,948
-686,839	198,203	0,054	-0,108	1432,292	1357,948
-685,824	29,576	-0,018	0,011	1432,292	1357,948
-684,810	179,088	-0,148	0,271	1432,292	1357,948
-683,795	-200,000	0,013	0,324	1432,292	1357,948
-682,781	33,659	0,078	-0,050	1432,292	1357,948
-681,766	146,709	-0,180	0,278	1432,292	1357,948
-680,751	800,000	-0,018	0,252	1432,292	1357,948
-679,737	-111,405	0,248	0,009	1432,292	1357,948
-678,722	800,000	0,007	0,074	1432,292	1357,948
-677,708	218,325	0,132	0,289	1432,292	1357,948
-676,693	81,596	-0,191	-0,190	1432,292	1357,948
-675,678	800,000	0,020	0,203	1432,292	1357,948
-674,664	205,796	0,272	0,564	1432,292	1357,948
-673,649	165,591	-0,136	0,233	1432,292	1357,948
-672,635	52,563	-0,145	0,112	1432,292	1357,948
-671,620	-46,727	-0,375	-0,076	1432,292	1357,948
-670,605	34,364	-0,163	0,106	1432,292	1357,948
-669,591	90,599	-0,139	0,149	1432,292	1357,948
-668,576	-103,757	-0,237	0,011	1432,292	1357,948
-667,562	87,438	-0,087	-0,091	1432,292	1357,948
-666,547	5,395	-0,338	-0,156	1432,292	1357,948
-665,532	395,710	-0,078	-0,292	1432,292	1357,948
-664,518	-8,109	-0,115	0,044	1432,292	1357,948
-663,503	227,337	0,050	-0,114	1432,292	1357,948
-662,489	267,376	0,120	-0,316	1432,292	1357,948
-661,474	1,352	-0,178	-0,078	1432,292	1357,948
-660,459	800,000	0,030	0,238	1432,292	1357,948
-659,445	-74,152	0,413	-0,046	1432,292	1357,948
-658,430	328,274	0,106	0,337	1432,292	1357,948
-657,416	40,680	-0,166	-0,115	1432,292	1357,948
-656,401	51,329	-0,283	-0,217	1432,292	1357,948
-655,386	127,371	-0,162	-0,223	1432,292	1357,948
-654,372	-136,694	0,025	0,000	1432,292	1357,948
-653,357	45,537	0,083	-0,060	1432,292	1357,948
-652,343	20,936	-0,181	0,101	1432,292	1357,948
-651,328	-44,027	-0,451	0,096	1432,292	1357,948
-650,314	93,858	0,178	0,195	1432,292	1357,948
-649,299	158,815	-0,008	0,013	1432,292	1357,948
-648,284	-77,198	-0,182	-0,019	1432,292	1357,948
-647,270	138,938	-0,088	0,130	1432,292	1357,948
-646,255	100,419	0,128	-0,147	1432,292	1357,948
-645,241	326,527	-0,079	-0,250	1432,292	1357,948
-644,226	2,059	0,500	-0,221	1432,292	1357,948
-643,211	28,878	0,163	-0,100	1432,292	1357,948
-642,197	29,725	-0,350	-0,216	1432,292	1357,948
-641,182	82,662	0,344	-0,347	1432,292	1357,948
-640,168	51,759	0,102	-0,079	1432,292	1357,948
-639,153	-68,726	0,312	-0,039	1432,292	1357,948
-638,138	-33,959	-0,339	-0,087	1432,292	1357,948
-637,124	-84,877	0,086	0,007	1432,292	1357,948
-636,109	-166,872	0,200	0,000	1432,292	1357,948
-635,095	-67,419	-0,095	-0,012	1432,292	1357,948
-634,080	60,509	-0,142	0,119	1432,292	1357,948
-633,065	49,991	0,283	-0,214	1432,292	1357,948
-632,051	53,023	-0,099	-0,078	1432,292	1357,948
-631,036	19,181	-0,447	-0,245	1432,292	1357,948
-630,022	63,530	-0,042	-0,036	1432,292	1357,948
-629,007	-47,972	0,202	0,040	1432,292	1357,948
-627,992	-89,104	-0,099	0,007	1432,292	1357,948
-626,978	5,182	-0,176	-0,081	1432,292	1357,948
-625,963	-25,479	0,228	0,067	1432,292	1357,948
-624,949	164,560	0,072	-0,122	1432,292	1357,948
-623,934	152,099	-0,090	-0,143	1432,292	1357,948
-622,919	-200,000	-0,003	-0,168	1432,292	1357,948
-621,905	55,004	-0,246	0,196	1432,292	1357,948
-620,890	103,065	-0,105	0,123	1432,292	1357,948
-619,876	-41,058	-0,206	-0,046	1432,292	1357,948
-618,861	-5,995	0,208	0,083	1432,292	1357,948
-617,846	185,824	-0,058	-0,110	1432,292	1357,948
-616,832	400,568	0,057	0,217	1432,292	1357,948
-615,817	45,502	-0,064	0,046	1432,292	1357,948
-614,803	800,000	-0,054	0,444	1432,292	1357,948
-613,788	43,144	0,069	0,049	1432,292	1357,948
-612,773	-30,900	-0,092	0,025	1432,292	1357,948
-611,759	-124,096	-0,170	-0,003	1432,292	1357,948
-610,744	310,421	-0,097	0,291	1432,292	1357,948
-609,730	276,505	-0,033	0,090	1432,292	1357,948
-608,715	52,056	-0,194	-0,150	1432,292	1357,948
-607,701	800,000	0,015	-0,227	1432,292	1357,948
-606,686	532,513	-0,036	-0,175	1432,292	1357,948
-605,671	17,171	0,564	-0,302	1432,292	1357,948
-604,657	93,043	-0,005	-0,005	1432,292	1357,948
-603,642	106,389	-0,147	0,176	1432,292	1357,948
-602,628	800,000	-0,013	-0,154	1432,292	1357,948
-601,613	344,091	-0,025	-0,083	1432,292	1357,948
-600,598	800,000	0,006	0,043	1432,292	1357,948
-599,584	-33,555	-0,135	0,035	1432,292	1357,948
-598,569	-100,847	-0,242	-0,012	1432,292	1357,948
-597,555	187,195	0,146	0,278	1432,292	1357,948
-596,540	-16,770	0,181	0,061	1432,292	1357,948
-595,525	36,557	-0,149	0,099	1432,292	1357,948
-594,511	50,364	-0,255	-0,194	1432,292	1357,948
-593,496	2,806	0,142	-0,064	1432,292	1357,948
-592,482	89,735	-0,177	0,188	1432,292	1357,948
-591,467	-19,481	-0,314	-0,102	1432,292	1357,948
-590,452	32,862	-0,266	-0,170	1432,292	1357,948
-589,438	-58,191	0,123	0,020	1432,292	1357,948
-588,423	151,145	-0,139	-0,221	1432,292	1357,948
-587,409	174,782	-0,103	0,184	1432,292	1357,948
-586,394	51,384	-0,138	0,106	1432,292	1357,948
-585,379	-200,000	0,000	-0,385	1432,292	1357,948
-584,365	39,219	0,090	-0,061	1432,292	1357,948
-583,350	-33,981	-0,262	0,067	1432,292	1357,948
-582,336	800,000	0,015	-0,128	1432,292	1357,948
-581,321	191,883	0,056	-0,109	1432,292	1357,948
-580,306	185,500	0,110	-0,208	1432,292	1357,948
-579,292	-25,342	-0,137	0,041	1432,292	1357,948
-578,277	-44,597	0,213	-0,045	1432,292	1357,948
-577,263	-200,000	-0,014	0,254	1432,292	1357,948
-576,248	21,416	-0,179	-0,101	1432,292	1357,948
-575,233	61,771	-0,358	-0,303	1432,292	1357,948
-574,219	-97,322	-0,162	-0,009	1432,292	1357,948
-573,204	-46,915	-0,275	0,055	1432,292	1357,948
-572,190	71,061	0,077	-0,070	1432,292	1357,948
-571,175	74,835	-0,214	-0,203	1432,292	1357,948
-570,161	276,605	-0,074	0,201	1432,292	1357,948
-569,146	45,576	0,184	-0,134	1432,292	1357,948
-568,131	442,510	-0,050	0,207	1432,292	1357,948
-567,117	-200,000	0,001	-0,049	1432,292	1357,948
-566,102	30,669	-0,132	0,082	1432,292	1357,948
-565,088	308,954	-0,116	-0,347	1432,292	1357,948
-564,073	123,226	0,077	0,103	1432,292	1357,948
-563,058	-90,555	-0,045	0,003	1432,292	1357,948
-562,044	-135,097	0,357	-0,004	1432,292	1357,948
-561,029	37,097	-0,103	-0,068	1432,292	1357,948
-560,015	800,000	-0,028	0,356	1432,292	1357,948
-559,000	-200,000	0,006	0,230	1432,292	1357,948
-557,985	-200,000	-0,015	0,313	1432,292	1357,948
-556,971	128,179	-0,184	0,255	1432,292	1357,948
-555,956	102,389	0,084	-0,098	1432,292	1357,948
-554,942	285,167	-0,101	0,281	1432,292	1357,948
-553,927	13,429	-0,159	0,081	1432,292	1357,948
-552,912	406,182	0,039	-0,148	1432,292	1357,948
-551,898	44,383	0,126	-0,090	1432,292	1357,948
-550,883	389,806	-0,059	-0,219	1432,292	1357,948
-549,869	-15,107	0,156	0,054	1432,292	1357,948
-548,854	-25,169	-0,199	-0,059	1432,292	1357,948
-547,839	44,558	-0,053	-0,038	1432,292	1357,948
-546,825	398,315	0,025	-0,095	1432,292	1357,948
-545,810	168,895	0,160	0,279	1432,292	1357,948
-544,796	94,524	0,068	-0,075	1432,292	1357,948
-543,781	59,170	0,049	-0,040	1432,292	1357,948
-542,766	44,767	0,185	0,133	1432,292	1357,948
-541,752	87,984	-0,105	-0,111	1432,292	1357,948
-540,737	105,445	0,165	0,197	1432,292	1357,948
-539,723	559,638	-0,021	-0,107	1432,292	1357,948
-538,708	41,077	-0,279	-0,193	1432,292	1357,948
-537,693	416,493	0,058	0,225	1432,292	1357,948
-536,679	175,848	0,152	-0,274	1432,292	1357,948
-535,664	-100,220	-0,169	0,009	1432,292	1357,948
-534,650	72,159	-0,113	-0,105	1432,292	1357,948
-533,635	61,175	0,213	-0,179	1432,292	1357,948
-532,621	800,000	-0,046	-0,306	1432,292	1357,948
-531,606	-48,610	0,154	0,030	1432,292	1357,948
-530,591	-2,927	0,236	0,098	1432,292	1357,948
-529,577	6,976	0,180	-0,085	1432,292	1357,948
-528,562	50,329	0,198	0,150	1432,292	1357,948
-527,548	-40,238	-0,279	-0,064	1432,292	1357,948
-526,533	-64,325	-0,222	0,031	1432,292	1357,948
-525,518	301,137	0,104	-0,305	1432,292	1357,948
-524,504	35,257	-0,283	0,185	1432,292	1357,948
-523,489	-4,369	-0,288	-0,117	1432,292	1357,948
-522,475	75,981	-0,152	-0,145	1432,292	1357,948
-521,460	800,000	0,047	0,335	1432,292	1357,948
-520,445	291,075	-0,080	-0,228	1432,292	1357,948
-519,431	45,454	-0,300	-0,218	1432,292	1357,948
-518,416	44,580	0,167	0,120	1432,292	1357,948
-517,402	416,562	0,032	0,127	1432,292	1357,948
-516,387	48,665	-0,028	-0,021	1432,292	1357,948
-515,372	-21,292	-0,133	-0,042	1432,292	1357,948
-514,358	-61,640	0,164	-0,024	1432,292	1357,948
-513,343	800,000	0,013	0,132	1432,292	1357,948
-512,329	800,000	0,010	-0,115	1432,292	1357,948
-511,314	395,934	-0,080	-0,299	1432,292	1357,948
-510,299	195,018	-0,026	0,052	1432,292	1357,948
-509,285	392,922	0,057	0,213	1432,292	1357,948
-508,270	16,157	0,054	0,029	1432,292	1357,948
-507,256	232,783	-0,008	-0,019	1432,292	1357,948
-506,241	264,922	0,091	0,237	1432,292	1357,948
-505,226	-106,406	-0,120	-0,005	1432,292	1357,948
-504,212	24,029	0,091	-0,052	1432,292	1357,948
-503,197	78,494	-0,133	-0,130	1432,292	1357,948
-502,183	-30,867	0,255	0,069	1432,292	1357,948
-501,168	599,672	-0,024	0,125	1432,292	1357,948
-500,153	-63,481	-0,325	0,046	1432,292	1357,948
-499,139	272,986	-0,081	-0,217	1432,292	1357,948
-498,124	128,819	0,121	0,169	1432,292	1357,948
-497,110	3,514	0,242	-0,109	1432,292	1357,948
-496,095	227,044	0,040	-0,091	1432,292	1357,948
-495,081	22,197	-0,192	0,109	1432,292	1357,948
-494,066	95,316	-0,123	0,137	1432,292	1357,948
-493,051	193,803	0,049	-0,095	1432,292	1357,948
-492,037	69,724	0,184	0,167	1432,292	1357,948
-491,022	52,308	0,280	-0,217	1432,292	1357,948
-490,008	781,863	0,053	-0,345	1432,292	1357,948
-488,993	309,380	0,020	0,061	1432,292	1357,948
-487,978	-4,432	0,214	0,087	1432,292	1357,948
-486,964	-136,381	0,211	0,002	1432,292	1357,948
-485,949	22,996	-0,221	0,126	1432,292	1357,948
-484,935	-71,096	-0,294	0,035	1432,292	1357,948
-483,920	76,923	-0,299	0,287	1432,292	1357,948
-482,905	-11,994	-0,267	-0,097	1432,292	1357,948
-481,891	124,019	-0,037	0,050	1432,292	1357,948
-480,876	327,739	0,045	0,143	1432,292	1357,948
-479,862	800,000	-0,044	0,314	1432,292	1357,948
-478,847	-68,848	0,252	-0,032	1432,292	1357,948
-477,832	-200,000	0,003	0,091	1432,292	1357,948
-476,818	149,900	-0,218	-0,342	1432,292	1357,948
-475,803	-12,982	-0,245	0,088	1432,292	1357,948
-474,789	29,406	-0,251	-0,154	1432,292	1357,948
-473,774	800,000	-0,019	0,223	1432,292	1357,948
-472,759	33,831	0,169	-0,109	1432,292	1357,948
-471,745	58,875	0,239	-0,197	1432,292	1357,948
-470,730	492,395	0,017	0,077	1432,292	1357,948
-469,716	75,697	-0,269	0,256	1432,292	1357,948
-468,701	-40,819	-0,347	0,078	1432,292	1357,948
-467,686	3,664	0,198	0,090	1432,292	1357,948
-466,672	448,429	-0,071	0,299	1432,292	1357,948
-465,657	-200,000	-0,005	-0,120	1432,292	1357,948
-464,643	800,000	0,002	0,019	1432,292	1357,948
-463,628	-5,574	-0,360	0,143	1432,292	1357,948
-462,613	-16,274	0,254	-0,087	1432,292	1357,948
-461,599	82,709	0,182	0,183	1432,292	1357,948
-460,584	147,513	0,221	0,343	1432,292	1357,948
-459,570	75,067	-0,129	0,122	1432,292	1357,948
-458,555	212,567	0,139	-0,296	1432,292	1357,948
-457,540	156,338	-0,078	-0,128	1432,292	1357,948
-456,526	413,098	-0,079	-0,308	1432,292	1357,948
-455,511	63,072	0,178	-0,152	1432,292	1357,948
-454,497	-60,352	-0,215	-0,033	1432,292	1357,948
-453,482	-86,487	-0,105	-0,008	1432,292	1357,948
-452,468	177,308	0,013	-0,024	1432,292	1357,948
-451,453	87,362	-0,185	-0,194	1432,292	1357,948
-450,438	-67,310	-0,189	0,025	1432,292	1357,948
-449,424	-21,843	0,166	0,052	1432,292	1357,948
-448,409	185,341	-0,054	-0,102	1432,292	1357,948
-447,395	800,000	0,031	-0,374	1432,292	1357,948
-446,380	143,828	-0,127	-0,193	1432,292	1357,948
-445,365	45,347	0,279	0,202	1432,292	1357,948
-444,351	800,000	-0,037	0,269	1432,292	1357,948
-443,336	10,584	0,208	0,103	1432,292	1357,948
-442,322	387,071	0,064	0,235	1432,292	1357,948
-441,307	148,111	-0,233	0,363	1432,292	1357,948
-440,292	146,695	0,038	-0,058	1432,292	1357,948
-439,278	800,000	0,018	-0,127	1432,292	1357,948
-438,263	269,031	-0,144	-0,380	1432,292	1357,948
-437,249	-19,267	-0,033	-0,011	1432,292	1357,948
-436,234	19,183	0,291	-0,159	1432,292	1357,948
-435,219	717,888	-0,011	0,066	1432,292	1357,948
-434,205	-200,000	0,014	0,303	1432,292	1357,948
-433,190	-84,423	0,254	-0,021	1432,292	1357,948
-432,176	678,235	0,038	-0,222	1432,292	1357,948
-431,161	379,180	-0,039	-0,142	1432,292	1357,948
-430,146	-63,915	0,387	0,054	1432,292	1357,948
-429,132	-16,080	0,175	0,060	1432,292	1357,948
-428,117	88,401	0,133	-0,140	1432,292	1357,948
-427,103	99,721	0,175	-0,200	1432,292	1357,948
-426,088	-200,000	0,016	0,298	1432,292	1357,948
-425,073	-58,297	0,143	-0,023	1432,292	1357,948
-424,059	-22,769	0,302	-0,093	1432,292	1357,948
-423,044	0,125	0,174	0,075	1432,292	1357,948
-422,030	27,036	0,278	0,166	1432,292	1357,948
-421,015	71,880	0,078	-0,072	1432,292	1357,948
-420,000	25,307	-0,212	0,125	1432,292	1357,948
-418,986	475,607	-0,043	-0,189	1432,292	1357,948
-417,971	-27,476	-0,094	0,027	1432,292	1357,948
-416,957	78,021	0,081	-0,079	1432,292	1357,948
-415,942	54,295	-0,073	-0,058	1432,292	1357,948
-414,928	771,954	-0,013	0,087	1432,292	1357,948
-413,913	20,445	-0,170	0,094	1432,292	1357,948
-412,898	503,180	-0,065	0,300	1432,292	1357,948
-411,884	-133,264	-0,117	-0,002	1432,292	1357,948
-410,869	800,000	-0,012	0,160	1432,292	1357,948
-409,855	495,969	0,032	-0,147	1432,292	1357,948
-408,840	-30,510	0,281	0,076	1432,292	1357,948
-407,825	18,885	0,213	0,116	1432,292	1357,948
-406,811	203,690	-0,007	0,014	1432,292	1357,948
-405,796	129,418	-0,122	-0,170	1432,292	1357,948
-404,782	-80,496	-0,319	0,030	1432,292	1357,948
-403,767	-58,475	-0,424	0,067	1432,292	1357,948
-402,752	-94,719	0,321	0,020	1432,292	1357,948
-401,738	37,751	-0,114	-0,076	1432,292	1357,948
-400,723	-3,730	0,094	0,038	1432,292	1357,948
-399,709	191,335	-0,165	0,321	1432,292	1357,948
-398,694	-3,915	0,131	0,053	1432,292	1357,948
-397,679	-73,903	-0,408	0,045	1432,292	1357,948
-396,665	133,876	0,140	-0,200	1432,292	1357,948
-395,650	325,505	0,089	-0,281	1432,292	1357,948
-394,636	5,839	0,035	0,016	1432,292	1357,948
-393,621	91,831	-0,207	-0,223	1432,292	1357,948
-392,606	9,602	0,258	0,126	1432,292	1357,948
-391,592	36,577	-0,177	0,117	1432,292	1357,948
-390,577	242,682	0,103	0,248	1432,292	1357,948
-389,563	284,847	-0,032	-0,089	1432,292	1357,948
-388,548	-114,687	0,186	-0,006	1432,292	1357,948
-387,533	-62,364	0,276	-0,040	1432,292	1357,948
-386,519	-158,506	-0,269	-0,001	1432,292	1357,948
-385,504	18,728	0,230	-0,125	1432,292	1357,948
-384,490	-77,147	0,123	0,013	1432,292	1357,948
-383,475	-63,900	0,103	0,015	1432,292	1357,948
-382,460	-57,685	0,272	-0,044	1432,292	1357,948
-381,446	-91,730	-0,041	0,003	1432,292	1357,948
-380,431	-98,207	-0,047	0,003	1432,292	1357,948
-379,417	-200,000	-0,004	-0,085	1432,292	1357,948
-378,402	-200,000	0,010	-0,165	1432,292	1357,948
-377,388	30,705	0,285	-0,178	1432,292	1357,948
-376,373	39,793	-0,143	0,098	1432,292	1357,948
-375,358	332,896	-0,056	-0,181	1432,292	1357,948
-374,344	95,890	0,276	-0,307	1432,292	1357,948
-373,329	8,275	0,144	-0,069	1432,292	1357,948
-372,315	230,631	-0,125	-0,286	1432,292	1357,948
-371,300	57,208	0,302	0,245	1432,292	1357,948
-370,285	311,431	-0,038	-0,113	1432,292	1357,948
-369,271	-54,841	-0,424	0,073	1432,292	1357,948
-368,256	267,397	0,031	0,082	1432,292	1357,948
-367,242	387,383	0,066	0,244	1432,292	1357,948
-366,227	-9,988	-0,073	0,027	1432,292	1357,948
-365,212	51,021	0,331	-0,253	1432,292	1357,948
-364,198	107,713	0,187	-0,226	1432,292	1357,948
-363,183	191,518	0,023	-0,045	1432,292	1357,948
-362,169	800,000	-0,010	-0,074	1432,292	1357,948
-361,154	182,891	-0,078	-0,145	1432,292	1357,948
-360,139	19,102	-0,331	-0,181	1432,292	1357,948
-359,125	107,819	-0,289	0,350	1432,292	1357,948
-358,110	93,088	-0,070	0,076	1432,292	1357,948
-357,096	75,892	-0,138	0,132	1432,292	1357,948
-356,081	-200,000	-0,010	0,341	1432,292	1357,948
-355,066	-38,124	0,342	0,081	1432,292	1357,948
-354,052	95,390	-0,035	0,039	1432,292	1357,948
-353,037	-59,333	-0,346	-0,054	1432,292	1357,948
-352,023	57,983	0,251	-0,205	1432,292	1357,948
-351,008	-4,046	0,267	-0,109	1432,292	1357,948
-349,993	17,911	0,104	0,056	1432,292	1357,948
-348,979	261,487	0,093	-0,239	1432,292	1357,948
-347,964	56,079	-0,096	-0,077	1432,292	1357,948
-346,950	800,000	-0,014	-0,124	1432,292	1357,948
-345,935	300,809	0,052	-0,153	1432,292	1357,948
-344,920	15,355	-0,181	-0,095	1432,292	1357,948
-343,906	474,366	-0,032	-0,142	1432,292	1357,948
-342,891	60,889	-0,077	-0,065	1432,292	1357,948
-341,877	293,792	-0,087	0,251	1432,292	1357,948
-340,862	92,669	0,222	0,242	1432,292	1357,948
-339,848	53,364	0,144	0,113	1432,292	1357,948
-338,833	-46,431	0,262	-0,053	1432,292	1357,948
-337,818	78,539	0,095	0,093	1432,292	1357,948
-336,804	103,359	0,269	0,316	1432,292	1357,948
-335,789	800,000	0,017	0,224	1432,292	1357,948
-334,775	134,834	-0,141	0,203	1432,292	1357,948
-333,760	-87,044	-0,236	0,018	1432,292	1357,948
-332,745	47,567	-0,010	-0,007	1432,292	1357,948
-331,731	-16,330	-0,174	-0,059	1432,292	1357,948
-330,716	30,721	-0,217	-0,135	1432,292	1357,948
-329,702	41,678	0,233	0,163	1432,292	1357,948
-328,687	172,645	0,103	-0,183	1432,292	1357,948
-327,672	35,837	-0,122	-0,080	1432,292	1357,948
-326,658	276,113	0,053	-0,145	1432,292	1357,948
-325,643	101,354	0,151	-0,175	1432,292	1357,948
-324,629	427,271	-0,068	-0,274	1432,292	1357,948
-323,614	35,385	0,252	0,165	1432,292	1357,948
-322,599	-38,915	-0,177	-0,041	1432,292	1357,948
-321,585	319,321	-0,093	-0,288	1432,292	1357,948
-320,570	126,746	-0,143	-0,196	1432,292	1357,948
-319,556	138,952	-0,153	-0,226	1432,292	1357,948
-318,541	-14,314	-0,067	0,023	1432,292	1357,948
-317,526	303,527	-0,059	0,173	1432,292	1357,948
-316,512	-75,355	0,186	-0,020	1432,292	1357,948
-315,497	309,551	0,083	-0,248	1432,292	1357,948
-314,483	-0,944	-0,209	0,089	1432,292	1357,948
-313,468	92,802	-0,119	0,130	1432,292	1357,948
-312,453	222,641	0,077	-0,172	1432,292	1357,948
-311,439	78,517	0,033	0,032	1432,292	1357,948
-310,424	35,249	-0,231	0,151	1432,292	1357,948
-309,410	257,933	0,037	-0,094	1432,292	1357,948
-308,395	-20,720	0,104	-0,033	1432,292	1357,948
-307,380	64,228	-0,067	0,058	1432,292	1357,948
-306,366	722,559	0,013	-0,081	1432,292	1357,948
-305,351	94,354	0,106	-0,117	1432,292	1357,948
-304,337	223,411	-0,132	0,294	1432,292	1357,948
-303,322	-83,845	0,163	0,014	1432,292	1357,948
-302,307	-149,051	0,118	0,001	1432,292	1357,948
-301,293	-57,850	0,101	0,016	1432,292	1357,948
-300,278	64,089	-0,032	-0,027	1432,292	1357,948
-299,264	-72,451	-0,255	0,029	1432,292	1357,948
-298,249	-103,176	-0,286	0,013	1432,292	1357,948
-297,235	-8,475	-0,172	-0,066	1432,292	1357,948
-296,220	173,515	0,090	-0,160	1432,292	1357,948
-295,205	193,966	0,028	-0,054	1432,292	1357,948
-294,191	76,105	0,142	0,136	1432,292	1357,948
-293,176	120,192	0,155	-0,204	1432,292	1357,948
-292,162	94,247	-0,138	0,152	1432,292	1357,948
-291,147	-33,494	-0,244	-0,063	1432,292	1357,948
-290,132	502,492	0,029	0,133	1432,292	1357,948
-289,118	167,671	0,148	-0,256	1432,292	1357,948
-288,103	-11,153	0,257	-0,095	1432,292	1357,948
-287,089	-200,000	0,004	0,292	1432,292	1357,948
-286,074	399,958	0,067	0,254	1432,292	1357,948
-285,059	766,543	0,035	-0,224	1432,292	1357,948
-284,045	62,520	-0,235	0,200	1432,292	1357,948
-283,030	297,693	0,074	0,215	1432,292	1357,948
-282,016	108,715	0,071	0,087	1432,292	1357,948
-281,001	-37,499	0,119	0,029	1432,292	1357,948
-279,986	60,105	-0,209	0,174	1432,292	1357,948
-278,972	520,208	0,067	0,316	1432,292	1357,948
-277,957	146,074	0,078	0,120	1432,292	1357,948
-276,943	167,261	-0,200	-0,346	1432,292	1357,948
-275,928	-200,000	-0,006	-0,178	1432,292	1357,948
-274,913	-19,547	0,238	-0,077	1432,292	1357,948
-273,899	17,855	0,196	-0,106	1432,292	1357,948
-272,884	-128,053	-0,288	0,005	1432,292	1357,948
-271,870	163,439	0,147	0,249	1432,292	1357,948
-270,855	525,008	0,033	0,159	1432,292	1357,948
-269,840	800,000	0,018	0,196	1432,292	1357,948
-268,826	-53,395	-0,318	0,056	1432,292	1357,948
-267,811	50,689	0,115	-0,088	1432,292	1357,948
-266,797	-113,598	0,209	0,007	1432,292	1357,948
-265,782	-119,189	0,146	-0,004	1432,292	1357,948
-264,767	56,948	-0,284	0,230	1432,292	1357,948
-263,753	-31,253	-0,214	0,058	1432,292	1357,948
-262,738	526,567	0,021	-0,100	1432,292	1357,948
-261,724	800,000	-0,025	0,287	1432,292	1357,948
-260,709	-84,840	0,246	0,020	1432,292	1357,948
-259,695	250,895	-0,040	-0,100	1432,292	1357,948
-258,680	5,644	-0,148	0,068	1432,292	1357,948
-257,665	49,293	0,104	0,078	1432,292	1357,948
-256,651	19,370	-0,163	-0,089	1432,292	1357,948
-255,636	-5,526	0,080	-0,032	1432,292	1357,948
-254,622	-200,000	0,002	-0,232	1432,292	1357,948
-253,607	157,523	0,153	-0,252	1432,292	1357,948
-252,592	507,604	-0,017	0,081	1432,292	1357,948
-251,578	143,105	-0,072	0,109	1432,292	1357,948
-250,563	45,740	-0,137	-0,099	1432,292	1357,948
-249,549	51,387	0,162	-0,124	1422,790	1357,929
-248,534	800,000	-0,042	-0,317	1208,431	1245,955
-247,519	19,310	-0,082	-0,077	-0,317	-0,175
-246,505	-130,987	0,120	-0,019	-0,390	0,034
-245,490	-200,000	-0,008	0,292	-0,404	1,198
-244,476	201,038	0,152	0,019	0,182	2,773
-243,461	79,802	0,068	-0,063	0,647	0,656
-242,446	-11,396	0,083	-0,031	5,770	5,367
-241,432	-52,961	0,167	0,030	30,342	28,551
-240,417	-29,233	0,165	0,045	216,288	208,271
-239,403	71,033	-0,211	0,186	998,711	982,000
-238,388	134,204	-0,080	0,127	1608,992	1372,594
-237,373	-200,000	0,005	-0,366	1168,932	830,031
-236,359	-26,145	0,325	-0,129	822,945	576,934
-235,344	86,854	0,091	0,127	821,334	576,068
-234,330	67,789	-0,322	-0,388	821,937	576,132
-233,315	36,474	0,285	-0,256	822,208	576,722
-232,300	66,759	-0,183	0,218	822,692	577,214
-231,286	-49,980	-0,135	0,035	823,243	577,132
-230,271	290,598	0,036	0,137	823,856	577,456
-229,257	305,692	0,004	-0,016	824,135	578,003
-228,242	164,856	0,122	-0,281	824,656	578,709
-227,227	-21,171	-0,091	-0,039	824,899	579,088
-226,213	93,412	0,113	-0,167	825,985	579,508
-225,198	174,942	-0,056	0,136	826,463	579,419
-224,184	-50,897	0,137	0,034	826,745	579,866
-223,169	112,928	-0,133	-0,224	826,668	580,753
-222,155	272,483	0,114	-0,412	827,965	580,967
-221,140	-77,232	0,337	0,046	828,189	580,947
-220,125	-92,875	-0,107	-0,009	828,119	581,514
-219,111	392,919	0,005	-0,027	828,810	581,685
-218,096	585,177	-0,044	0,307	829,670	582,640
-217,082	329,387	0,107	0,462	830,032	582,285
-216,067	175,091	-0,037	-0,090	830,338	582,968
-215,052	46,683	0,108	0,107	830,767	583,692
-214,038	172,327	0,209	0,500	831,027	583,731
-213,023	-78,390	0,044	0,006	832,235	583,820
-212,009	275,311	-0,081	0,295	832,281	584,347
-210,994	-200,000	0,001	-0,127	832,848	584,527
-209,979	-13,945	-0,210	0,100	833,178	585,431
-208,965	25,734	0,190	0,151	834,120	585,876
-207,950	800,000	0,019	0,199	834,588	586,480
-206,936	16,332	0,227	0,162	834,676	586,440
-205,921	24,939	0,231	0,182	835,166	587,206
-204,906	36,574	-0,239	0,213	835,603	587,364
-203,892	-10,365	-0,094	0,047	836,100	587,479
-202,877	172,762	0,109	-0,262	836,675	588,359
-201,863	26,236	-0,128	0,102	837,105	588,451
-200,848	42,888	-0,098	-0,093	837,670	588,606
-199,833	28,895	0,273	0,224	838,213	589,912
-198,819	-68,064	-0,147	-0,025	838,566	589,570
-197,804	-10,996	0,114	0,057	839,282	589,858
-196,790	5,107	0,286	-0,178	839,427	590,394
-195,775	-107,177	0,297	-0,016	840,158	590,897
-194,760	-117,001	0,103	-0,004	840,958	591,111
-193,746	-6,318	0,109	-0,058	841,367	591,803
-192,731	35,749	0,086	-0,076	841,636	592,006
-191,717	-63,020	0,110	0,021	841,769	592,469
-190,702	44,667	-0,133	-0,129	842,577	593,059
-189,687	-40,000	-0,350	-0,108	843,135	593,633
-188,673	-50,846	0,091	0,023	844,812	594,512
-187,658	-56,665	-0,071	0,016	848,558	597,179
-186,644	105,184	-0,064	0,102	870,714	617,306
-185,629	24,796	0,215	-0,167	934,466	666,716
-184,614	-32,252	0,195	-0,070	987,057	683,450
-183,600	-53,926	0,343	-0,084	989,545	670,372
-182,585	295,158	0,005	-0,022	988,846	667,853
-181,571	-122,430	-0,317	0,010	988,932	668,031
-180,556	194,299	0,042	-0,115	989,627	668,510
-179,542	-26,040	-0,170	-0,070	990,136	668,855
-178,527	31,183	-0,093	0,081	991,199	669,394
-177,512	45,126	0,169	0,171	993,179	670,975
-176,498	34,237	0,271	0,246	1000,583	676,107
-175,483	-34,127	-0,109	0,039	1019,275	689,519
-174,469	-125,456	-0,136	0,004	1035,550	700,171
-173,454	13,044	-0,174	0,124	1039,684	702,109
-172,439	-9,743	-0,190	0,100	1039,960	702,468
-171,425	-22,315	0,153	0,067	1040,468	702,354
-170,410	-48,432	-0,030	0,008	1041,058	702,897
-169,396	59,475	-0,318	0,370	1042,089	703,379
-168,381	-24,425	-0,175	-0,074	1042,577	703,601
-167,366	-200,000	0,010	0,248	1043,514	707,391
-166,352	58,559	-0,078	0,089	1045,294	710,184
-165,337	88,674	-0,029	0,043	1045,105	708,222
-164,323	-76,601	-0,266	-0,039	1044,537	705,112
-163,308	153,171	-0,089	-0,199	1045,161	705,694
-162,293	140,942	0,087	0,182	1045,626	705,785
-161,279	126,071	0,117	0,224	1046,187	706,408
-160,264	183,325	0,082	0,216	1046,524	707,885
-159,250	-45,713	-0,177	-0,051	1047,657	708,124
-158,235	127,339	-0,222	0,429	1048,713	709,646
-157,220	39,200	0,177	-0,168	1049,780	714,061
-156,206	0,813	0,061	-0,036	1052,437	721,752
-155,191	-30,751	0,116	-0,043	1055,388	730,626
-154,177	80,313	0,107	0,143	1057,806	737,624
-153,162	140,820	0,015	-0,031	1059,463	741,476
-152,147	-74,469	-0,162	0,024	1061,359	745,989
-151,133	-5,003	0,132	0,071	1062,786	750,839
-150,118	-21,133	0,536	-0,227	1063,759	754,005
-149,104	-200,000	0,006	0,290	1064,604	756,031
-148,089	2,831	-0,071	-0,042	1065,662	756,621
-147,074	70,633	0,151	-0,184	1066,776	757,876
-146,060	-18,553	0,076	0,034	1067,060	758,507
-145,045	596,407	0,048	0,339	1067,889	758,491
-144,031	-200,000	0,003	-0,139	1068,479	759,385
-143,016	302,209	0,018	-0,071	1069,068	760,205
-142,002	717,126	0,035	0,281	1069,563	761,015
-140,987	-20,846	0,249	-0,106	1070,098	760,452
-139,972	800,000	0,010	0,117	1070,673	760,715
-138,958	689,707	0,014	0,109	1071,421	761,268
-137,943	800,000	0,021	0,193	1071,627	761,788
-136,929	18,212	-0,195	0,141	1072,310	761,521
-135,914	186,876	0,120	0,305	1072,864	761,377
-134,899	180,721	-0,048	0,119	1072,940	761,613
-133,885	-14,128	0,046	-0,022	1074,259	764,168
-132,870	2,179	0,074	0,044	1076,676	769,343
-131,856	800,000	-0,009	0,172	1077,339	772,061
-130,841	518,999	-0,048	0,303	1077,320	769,182
-129,826	800,000	0,017	0,266	1078,229	770,423
-128,812	-21,153	-0,048	0,020	1079,078	771,544
-127,797	48,954	-0,200	-0,199	1080,150	771,970
-126,783	-13,955	0,296	0,139	1081,327	774,086
-125,768	-23,781	0,179	0,072	1081,868	774,357
-124,753	201,680	0,090	0,243	1081,859	770,242
-123,739	-83,742	-0,106	0,012	1081,335	768,889
-122,724	1,531	-0,039	-0,023	1082,237	769,577
-121,710	-47,263	0,140	-0,037	1082,572	770,835
-120,695	-122,873	0,182	-0,005	1083,370	772,483
-119,680	11,163	0,134	0,088	1084,377	772,434
-118,666	312,810	0,041	-0,167	1084,936	772,730
-117,651	101,584	0,069	0,106	1085,992	774,257
-116,637	37,888	-0,026	-0,023	1086,880	776,239
-115,622	-100,744	0,201	0,014	1087,187	776,799
-114,607	51,810	0,036	0,037	1087,772	776,446
-113,593	-90,504	0,285	0,027	1087,992	775,567
-112,578	78,364	-0,264	0,341	1088,654	776,447
-111,564	-86,863	-0,348	-0,036	1089,648	777,923
-110,549	-72,940	0,211	-0,032	1090,324	778,617
-109,534	155,316	-0,049	0,107	1090,817	777,885
-108,520	-200,000	0,007	-0,189	1090,654	776,233
-107,505	142,921	-0,138	0,279	1090,949	774,324
-106,491	-0,720	0,078	0,045	1090,189	770,384
-105,476	178,078	0,067	0,165	1090,244	766,643
-104,462	133,261	-0,222	-0,430	1089,182	762,072
-103,447	110,780	0,102	0,172	1088,493	756,439
-102,432	800,000	-0,018	0,288	1086,882	748,436
-101,418	203,843	0,042	0,121	1085,161	741,529
-100,403	-79,566	-0,259	-0,034	1085,126	738,842
-99,389	-23,902	-0,245	-0,104	1085,452	738,687
-98,374	-47,061	-0,202	-0,057	1085,912	739,460
-97,359	224,617	-0,051	0,159	1086,296	739,472
-96,345	-89,180	-0,270	0,027	1086,838	739,393
-95,330	-34,481	0,325	-0,115	1088,552	740,628
-94,316	122,641	-0,107	0,199	1088,792	741,656
-93,301	-40,895	-0,121	-0,038	1090,358	746,252
-92,286	218,225	0,120	0,362	1091,214	748,766
-91,272	-65,244	-0,350	-0,066	1091,472	745,135
-90,257	-72,657	0,570	0,091	1090,670	742,629
-89,243	10,927	0,092	0,063	1091,733	743,182
-88,228	14,809	0,141	-0,102	1092,524	744,128
-87,213	-7,817	-0,423	-0,228	1093,250	745,007
-86,199	-200,000	-0,000	-0,030	1093,942	745,401
-85,184	686,792	0,021	0,174	1094,889	746,362
-84,170	142,539	0,171	-0,360	1096,926	747,471
-83,155	171,029	0,055	0,135	1100,065	750,017
-82,140	26,479	0,218	0,180	1103,803	752,112
-81,126	-26,933	0,122	0,049	1105,062	753,413
-80,111	-28,144	-0,193	0,076	1106,292	754,487
-79,097	21,499	-0,269	-0,210	1106,392	754,485
-78,082	-36,182	0,156	0,054	1106,942	754,447
-77,067	-45,882	0,050	0,014	1107,694	755,192
-76,053	-32,721	0,259	-0,094	1108,315	756,900
-75,038	703,980	0,020	0,169	1109,914	761,194
-74,024	259,646	-0,093	0,330	1110,751	762,255
-73,009	-50,178	0,235	0,062	1110,365	758,955
-71,994	-86,339	0,358	-0,039	1111,514	760,658
-70,980	58,325	0,159	-0,179	1114,031	769,079
-69,965	332,086	-0,020	0,084	1122,180	801,984
-68,951	-2,829	-0,181	0,094	1137,923	860,843
-67,936	800,000	0,018	-0,234	1144,857	876,813
-66,922	-24,697	-0,300	-0,116	1134,186	832,399
-65,907	-93,363	0,297	0,025	1125,474	802,609
-64,892	800,000	0,023	-0,243	1125,444	802,455
-63,878	0,834	0,341	0,197	1126,391	805,178
-62,863	641,875	-0,030	0,224	1128,010	807,326
-61,849	800,000	-0,056	-0,816	1128,849	809,348
-60,834	294,954	-0,478	1,815	1129,950	811,342
-59,819	539,663	0,249	-1,601	1130,493	812,720
-58,805	27,951	-1,433	-1,142	1131,476	813,602
-57,790	368,822	0,497	-2,305	1131,747	814,252
-56,776	175,369	3,401	8,063	1132,605	814,861
-55,761	800,000	115,919	1256,393	1132,751	814,700
-54,746	139,261	1733,922	3382,495	1133,696	815,588
-53,732	55,099	3237,218	3396,857	1134,352	815,209
-52,717	47,821	3252,994	3189,752	1134,700	814,447
-51,703	27,163	2879,175	2278,688	1135,105	814,863
-50,688	21,157	2544,594	1881,310	1135,448	815,275
-49,673	18,491	2420,278	1735,024	1136,194	815,669
-48,659	18,866	2393,936	1724,025	1136,532	815,763
-47,644	20,138	2386,250	1745,274	1137,393	815,872
-46,630	17,906	2374,049	1692,400	1138,755	816,451
-45,615	17,737	2369,237	1684,242	1139,413	817,588
-44,600	17,749	2365,424	1681,519	1140,221	818,289
-43,586	17,759	2362,878	1678,401	1140,517	819,233
-42,571	17,834	2359,252	1676,274	1141,196	820,231
-41,557	17,856	2357,413	1674,202	1142,180	821,528
-40,542	17,881	2354,633	1672,140	1143,307	822,617
-39,527	17,869	2352,803	1670,288	1143,588	822,980
-38,513	17,942	2349,165	1668,512	1143,881	823,496
-37,498	17,941	2346,797	1666,678	1144,564	824,060
-36,484	17,796	2345,319	1664,822	1145,806	823,940
-35,469	17,827	2343,032	1663,461	1146,273	824,448
-34,454	17,839	2340,751	1661,927	1146,372	824,593
-33,440	17,767	2338,607	1661,198	1146,677	823,713
-32,425	17,585	2336,215	1659,504	1147,509	822,538
-31,411	17,396	2334,562	1657,980	1147,451	820,837
-30,396	17,342	2331,967	1656,675	1147,904	820,366
-29,381	17,927	2330,338	1654,996	1150,122	827,915
-28,367	20,728	2328,205	1653,830	1158,143	861,235
-27,352	23,412	2326,566	1653,021	1168,822	896,139
-26,338	21,127	2324,791	1650,921	1163,927	869,790
-25,323	16,328	2322,282	1649,800	1148,791	811,168
-24,309	14,128	2320,388	1648,169	1141,671	785,250
-23,294	13,860	2319,607	1646,834	1141,299	782,825
-22,279	13,920	2317,735	1645,589	1142,176	783,953
-21,265	14,155	2315,623	1644,422	1143,523	786,951
-20,250	14,061	2313,233	1643,310	1144,165	786,218
-19,236	13,759	2312,317	1641,532	1143,617	783,510
-18,221	13,760	2310,168	1639,641	1143,711	783,763
-17,206	13,737	2308,218	1638,492	1144,247	783,798
-16,192	13,768	2306,870	1637,877	1145,163	784,558
-15,177	13,727	2304,616	1635,959	1146,270	785,077
-14,163	13,806	2302,993	1635,213	1147,466	786,454
-13,148	13,706	2301,848	1633,606	1152,780	789,517
-12,133	13,551	2300,455	1631,944	1183,600	809,437
-11,119	13,103	2299,418	1631,356	1241,654	844,439
-10,104	12,727	2297,292	1630,095	1277,104	864,437
-9,090	12,717	2295,351	1629,015	1287,637	871,306
-8,075	12,627	2294,538	1628,024	1297,768	877,417
-7,060	12,552	2293,238	1626,447	1306,118	882,614
-6,046	12,564	2291,239	1625,397	1315,752	889,048
-5,031	12,661	2289,928	1624,124	1327,157	898,005
-4,017	13,642	2288,006	1622,063	1359,375	931,279
-3,002	18,318	2286,509	1622,264	1529,241	1107,000
-1,987	21,030	2284,910	1620,845	1974,061	1475,130
-0,973	17,230	2282,934	1618,978	2359,392	1686,926
0,042	16,306	2268,873	1616,751	2423,318	1705,501
1,056	17,202	2160,997	1557,611	2427,137	1706,816
2,071	15,172	2019,800	1420,589	2428,619	1708,352
3,086	12,699	1960,774	1338,416	2430,853	1709,832
4,100	12,090	1951,023	1321,730	2432,253	1710,979
5,115	12,020	1947,460	1318,001	2433,160	1711,856
6,129	12,023	1943,874	1315,764	2435,034	1712,990
7,144	12,012	1940,121	1312,574	2436,341	1714,535
8,159	11,947	1938,276	1310,207	2438,612	1716,224
9,173	12,001	1933,571	1308,203	2439,889	1716,708
10,188	12,261	1902,543	1290,960	2441,582	1718,394
11,202	12,533	1825,560	1242,922	2443,681	1719,771
12,217	12,603	1771,919	1206,904	2445,253	1721,645
13,231	12,531	1761,901	1199,348	2446,752	1722,236
14,246	12,559	1759,564	1197,594	2448,423	1724,237
15,261	12,464	1757,988	1195,480	2450,165	1724,965
16,275	12,535	1756,042	1194,760	2452,490	1727,223
17,290	12,474	1755,995	1193,942	2454,081	1728,195
18,304	12,477	1754,337	1192,689	2455,985	1729,776
19,319	12,677	1754,745	1195,845	2458,042	1731,290
20,334	13,072	1754,969	1202,426	2460,166	1731,850
21,348	12,850	1752,353	1196,464	2461,180	1733,901
22,363	12,522	1749,580	1190,195	2463,909	1735,237
23,377	12,542	1748,524	1189,243	2464,725	1736,568
24,392	12,483	1747,180	1187,647	2467,228	1738,088
25,407	12,515	1745,381	1186,699	2468,942	1739,575
26,421	12,547	1745,441	1187,442	2471,033	1740,696
27,436	12,503	1744,903	1185,916	2472,292	1742,344
28,450	12,589	1743,065	1185,974	2474,262	1743,638
29,465	12,762	1743,823	1188,950	2476,226	1745,103
30,480	13,326	1745,230	1198,257	2478,656	1746,631
31,494	14,227	1748,617	1213,671	2480,849	1748,330
32,509	14,866	1749,982	1223,934	2483,491	1750,310
33,523	15,245	1750,981	1230,228	2485,531	1751,747
34,538	15,591	1751,915	1235,901	2488,104	1753,716
35,553	15,903	1752,209	1241,553	2491,404	1754,893
36,567	16,224	1752,208	1245,734	2493,623	1757,275
37,582	16,404	1752,530	1248,340	2496,746	1759,901
38,596	16,519	1750,826	1248,735	2499,047	1761,652
39,611	16,502	1749,912	1247,807	2501,963	1763,753
40,626	16,477	1748,765	1246,800	2504,440	1765,247
41,640	16,524	1747,654	1246,488	2508,150	1768,161
42,655	16,529	1746,255	1245,486	2511,678	1770,756
43,669	16,623	1746,423	1246,085	2514,090	1773,762
44,684	16,683	1744,691	1245,381	2518,249	1777,215
45,699	16,928	1743,298	1243,149	2523,374	1787,789
46,713	18,714	1742,675	1241,020	2533,183	1835,462
47,728	17,428	1741,706	1240,511	2542,436	1814,202
48,742	17,451	1739,947	1239,682	2581,660	1842,069
49,757	20,280	1738,526	1238,952	2736,122	2017,616
50,771	27,392	1737,121	1236,430	3034,447	2428,326
51,786	47,119	1735,835	1234,146	3286,540	3231,266
52,801	58,671	1735,699	1234,408	3107,311	3404,534
53,815	145,185	1736,476	1241,526	1580,923	3211,479
54,830	800,000	1736,408	1245,779	101,448	1124,493
55,844	151,700	1734,224	1240,623	3,291	6,932
56,859	593,044	1732,161	1238,778	0,326	-2,279
57,874	16,265	1730,098	1237,976	-1,531	-1,072
58,888	800,000	1727,413	1235,545	0,107	-1,323
59,903	246,937	1727,143	1238,122	-0,525	1,697
60,917	502,169	1726,251	1237,771	-0,151	-0,916
61,932	136,267	1723,640	1229,689	-0,013	-0,025
62,947	70,114	1721,246	1224,958	0,302	0,366
63,961	-62,497	1719,857	1222,292	-0,066	-0,013
64,976	-49,079	1718,420	1222,450	-0,112	0,029
65,990	22,564	1718,308	1222,880	-0,266	-0,202
67,005	48,493	1717,181	1221,038	-0,107	-0,106
68,020	-38,211	1715,489	1219,874	-0,245	-0,078
69,034	257,314	1715,291	1219,894	0,031	0,106
70,049	-24,083	1714,099	1221,262	-0,071	0,029
71,063	51,025	1714,003	1221,557	-0,059	0,060
72,078	800,000	1712,004	1219,409	0,022	0,268
73,093	-78,723	1710,021	1216,033	-0,064	0,008
74,107	-12,557	1709,194	1215,116	-0,136	0,065
75,122	617,500	1708,517	1216,178	-0,042	-0,305
76,136	-79,256	1708,175	1215,672	0,341	-0,044
77,151	93,859	1706,680	1213,487	0,084	0,123
78,166	-80,364	1704,951	1210,719	-0,077	0,010
79,180	-103,704	1702,607	1205,575	-0,226	-0,014
80,195	100,206	1700,115	1198,148	0,138	-0,213
81,209	64,751	1696,935	1190,200	0,232	0,272
82,224	769,435	1694,652	1184,229	0,015	-0,127
83,239	203,899	1690,713	1174,485	0,033	0,094
84,253	189,505	1685,979	1158,968	-0,150	0,399
85,268	-32,188	1682,751	1146,657	0,097	-0,036
86,282	70,925	1679,484	1139,001	-0,279	0,357
87,297	-67,817	1678,055	1135,861	0,019	0,003
88,312	-72,150	1677,265	1135,283	-0,213	0,034
89,326	-72,216	1675,810	1133,926	-0,066	0,011
90,341	241,789	1674,961	1132,733	0,129	-0,433
91,355	298,763	1674,004	1132,761	-0,086	-0,349
92,370	634,212	1673,407	1132,493	-0,016	-0,124
93,384	100,796	1673,599	1136,147	0,031	0,050
94,399	-53,999	1674,472	1141,471	-0,134	-0,033
95,414	78,500	1671,461	1135,162	-0,089	0,121
96,428	-149,002	1668,973	1128,931	0,204	0,002
97,443	46,508	1668,225	1128,777	0,068	0,070
98,457	-72,846	1667,209	1127,536	0,239	0,038
99,472	178,739	1666,473	1127,073	-0,031	0,080
100,487	-118,973	1665,953	1126,721	-0,094	-0,003
101,501	-19,133	1664,546	1126,325	0,275	0,126
102,516	44,030	1663,567	1125,636	0,164	-0,165
103,530	-16,229	1661,013	1123,206	0,179	0,086
104,545	141,982	1659,285	1121,416	-0,042	0,088
105,560	2,519	1657,097	1120,984	-0,386	0,241
106,574	253,246	1656,121	1120,327	-0,039	0,137
107,589	39,881	1655,228	1118,834	-0,257	0,247
108,603	-30,437	1653,992	1118,112	-0,163	0,062
109,618	122,677	1653,216	1116,637	0,046	0,086
110,633	347,633	1652,222	1116,894	0,088	-0,411
111,647	26,702	1653,281	1121,674	0,266	-0,222
112,662	-48,843	1652,417	1123,477	0,139	-0,038
113,676	-25,944	1649,307	1116,735	0,350	-0,144
114,691	126,810	1648,173	1114,996	-0,152	-0,292
115,706	79,925	1648,630	1118,843	0,087	0,120
116,720	445,109	1657,985	1150,187	-0,043	0,243
117,735	313,036	1682,234	1241,502	0,031	0,121
118,749	-10,264	1689,859	1288,769	-0,394	0,183
119,764	246,566	1672,219	1229,309	0,061	-0,192
120,779	88,375	1658,923	1175,829	0,101	-0,142
121,793	-20,214	1656,051	1166,774	0,270	0,117
122,808	98,995	1655,601	1167,356	-0,122	0,187
123,822	336,039	1654,471	1169,173	-0,075	-0,326
124,837	299,859	1653,837	1170,315	0,047	0,183
125,852	39,148	1653,442	1171,678	0,024	0,022
126,866	-103,214	1652,493	1172,426	-0,216	-0,013
127,881	23,740	1651,864	1172,024	-0,110	-0,085
128,895	46,518	1650,449	1171,565	0,096	-0,094
129,910	145,865	1649,111	1171,066	0,086	-0,177
130,924	30,150	1647,790	1169,465	-0,144	0,119
131,939	68,438	1646,930	1168,755	0,059	-0,071
132,954	-40,950	1645,432	1167,548	0,186	-0,056
133,968	800,000	1644,304	1164,458	-0,018	0,210
134,983	198,484	1642,600	1162,878	-0,123	0,329
135,997	116,044	1641,693	1162,013	0,189	0,325
137,012	65,175	1640,161	1161,044	0,135	0,157
138,027	-200,000	1638,889	1159,690	0,012	0,434
139,041	491,651	1636,195	1157,441	-0,075	0,451
140,056	99,008	1633,938	1155,732	-0,124	0,189
141,070	-200,000	1632,574	1154,967	-0,004	-0,095
142,085	293,335	1631,591	1154,810	-0,054	-0,208
143,100	-65,119	1631,134	1153,780	-0,116	-0,021
144,114	41,942	1629,779	1154,044	-0,131	-0,122
145,129	-0,815	1628,899	1154,081	0,237	0,135
146,143	-85,050	1628,077	1153,930	-0,324	-0,036
147,158	33,084	1627,465	1153,324	-0,178	0,152
148,173	29,646	1625,947	1151,888	-0,073	0,060
149,187	41,516	1624,545	1150,880	0,174	0,162
150,202	-86,861	1623,575	1149,710	-0,254	0,027
151,216	37,387	1622,719	1148,855	-0,133	-0,119
152,231	94,289	1621,030	1147,201	0,014	0,021
153,246	43,604	1620,034	1145,292	0,105	0,100
154,260	55,058	1618,725	1142,303	-0,163	0,174
155,275	139,390	1616,435	1138,175	0,008	-0,017
156,289	-95,193	1614,512	1134,404	0,054	-0,004
157,304	44,679	1614,075	1133,710	0,140	0,136
158,319	-200,000	1624,937	1172,860	-0,003	-0,234
159,333	48,231	1639,669	1234,413	0,151	-0,142
160,348	59,248	1631,172	1217,143	-0,084	-0,089
161,362	-45,622	1607,617	1133,539	-0,093	-0,026
162,377	-5,380	1595,476	1083,700	0,128	-0,072
163,392	-32,173	1592,533	1074,041	0,118	-0,044
164,406	145,916	1591,558	1071,886	0,084	-0,182
165,421	-11,588	1590,787	1075,171	0,062	0,032
166,435	32,980	1589,779	1073,519	-0,116	0,104
167,450	144,393	1587,554	1067,888	0,100	-0,214
168,464	-30,555	1586,298	1066,046	-0,149	0,057
169,479	199,930	1585,330	1064,928	0,086	0,246
170,494	145,574	1583,955	1064,135	0,027	-0,058
171,508	262,845	1583,001	1063,904	0,040	-0,145
172,523	419,283	1582,015	1062,682	0,036	-0,203
173,537	134,628	1562,795	1054,884	-0,049	0,099
174,552	371,593	1447,694	986,424	-0,064	0,313
175,567	-65,573	1318,401	896,376	-0,090	0,017
176,581	45,272	1271,489	860,942	-0,116	-0,118
177,596	-42,368	1264,267	856,279	-0,077	0,024
178,610	-36,053	1261,971	854,538	-0,118	0,041
179,625	180,598	1261,425	853,755	0,069	-0,180
180,640	698,265	1260,670	853,544	0,011	0,092
181,654	12,668	1259,875	853,685	-0,169	0,120
182,669	-37,966	1260,300	856,375	-0,110	0,037
183,683	-3,766	1258,090	879,542	0,099	-0,055
184,698	800,000	1101,885	815,803	0,020	0,179
185,713	27,922	902,649	653,790	0,097	0,076
186,727	-33,564	834,697	588,353	-0,273	0,095
187,742	-200,000	824,425	582,404	-0,002	-0,179
188,756	-81,064	822,531	580,276	-0,334	0,041
189,771	169,822	821,744	579,541	0,047	-0,111
190,786	158,604	820,839	579,754	0,060	0,132
191,800	501,646	820,395	578,832	-0,049	0,305
192,815	265,594	819,627	578,457	-0,013	0,046
193,829	24,059	819,088	577,834	0,037	-0,029
194,844	-81,545	818,663	577,892	0,461	0,056
195,859	-5,570	818,360	577,669	-0,102	0,055
196,873	-54,800	817,710	576,533	-0,278	0,064
197,888	-99,800	817,479	576,205	0,279	-0,020
198,902	62,770	817,089	576,467	0,168	0,192
199,917	15,438	816,676	575,621	0,213	0,150
200,932	173,284	816,367	574,671	0,120	-0,288
201,946	18,131	815,311	574,584	0,146	-0,106
202,961	243,431	814,231	574,615	-0,005	0,015
203,975	161,282	814,084	573,744	-0,070	0,157
204,990	800,000	813,972	573,624	0,011	-0,139
206,004	151,614	813,672	572,703	-0,113	0,241
207,019	59,968	813,108	572,687	0,129	-0,145
208,034	-50,889	812,167	572,154	-0,157	-0,039
209,048	800,000	811,679	571,897	0,026	0,359
210,063	22,712	811,068	571,115	-0,148	0,114
211,077	121,058	810,961	570,935	0,127	0,227
212,092	41,022	810,890	570,790	0,201	-0,188
213,107	-58,514	810,097	570,049	0,367	-0,079
214,121	-41,475	809,486	569,759	0,269	0,081
215,136	23,037	808,910	569,630	0,156	0,120
216,150	-79,958	808,515	569,179	-0,178	0,023
217,165	151,126	807,896	569,129	-0,103	-0,220
218,180	44,584	807,323	568,139	0,126	-0,122
219,194	-15,493	806,425	567,925	0,267	-0,124
220,209	-49,308	806,749	567,227	0,118	-0,031
221,223	-14,383	806,253	567,003	0,126	0,060
222,238	-39,629	805,631	567,073	0,199	0,062
223,253	3,579	805,327	566,577	-0,073	-0,044
224,267	-145,675	804,515	565,941	-0,093	-0,001
225,282	351,458	804,503	565,947	0,055	0,250
226,296	800,000	803,763	565,206	0,018	-0,167
227,311	193,380	803,197	565,058	0,047	-0,124
228,326	13,573	802,633	564,723	0,230	0,159
229,340	-44,397	802,377	563,879	0,111	0,032
230,355	203,780	801,982	563,905	-0,067	-0,187
231,369	8,124	801,131	563,441	-0,167	0,108
232,384	7,677	800,788	563,227	-0,106	0,068
233,399	-48,485	800,471	562,846	-0,459	0,121
234,413	176,570	800,271	562,053	-0,126	-0,308
235,428	9,282	803,487	564,859	0,253	-0,165
236,442	126,448	1178,494	856,051	0,127	-0,226
237,457	-200,000	1599,445	1416,797	-0,003	0,222
238,472	30,514	900,387	928,620	-0,061	0,035
239,486	138,674	143,599	137,902	0,152	0,221
240,501	-60,060	17,968	17,569	-0,160	0,024
241,515	78,703	4,184	3,830	0,141	-0,142
242,530	18,360	0,677	0,218	-0,020	0,032
243,545	-200,000	0,210	2,505	-0,033	-0,285
244,559	301,039	-0,475	0,737	-0,144	-0,258
245,574	122,122	-0,683	-0,592	0,086	-0,126
246,588	210,590	-0,705	-0,660	-0,104	0,222
247,603	266,933	1314,879	1348,713	-0,109	0,265
248,617	40,599	1430,159	1348,911	0,140	-0,097
