DTS Sentinel unit serial number:	SN409016Multiplexer serial number:	ORYXHardware model number:	OX4-SRSoftware version number:	ORYX F/W v4,00 Oryx Data Collector v3.7.3data status	okinstallation	mike1234differential loss correction	combinedforward channel	channel 1reverse channel	channel 1 reversedate	2020/03/06time	18:48:46forward acquisition time	60,00reverse acquisition time	60,00gamma	499,5406k internal	0,2514k external	0,2514temperature offset calibration	1,0000default loss term (dB/km)	0,3750temperature slope calibration	0,0000multiplexer offset coefficient	1,0000multiplexer slope coefficient	1,0000fibre end	0,00T internal ref (°C)	16,62T ext. ref 1 (°C)	6,78T ext. ref 2 (°C)	6,66length (m)	temperature (°C)	forward Stokes	forward anti-Stokes	reverse Stokes	reverse anti-Stokes-746,700	55,687	0,271	0,216	1437,530	1368,665
-745,685	112,369	-0,316	0,394	1437,530	1368,665
-744,671	579,426	0,075	0,388	1437,530	1368,665
-743,656	250,799	-0,241	0,595	1437,530	1368,665
-742,642	78,185	0,114	0,110	1437,530	1368,665
-741,627	458,994	-0,101	0,428	1437,530	1368,665
-740,612	-35,894	0,372	-0,092	1437,530	1368,665
-739,598	275,093	-0,042	0,114	1437,530	1368,665
-738,583	47,388	-0,148	0,109	1437,530	1368,665
-737,569	105,620	0,100	0,118	1437,530	1368,665
-736,554	-31,832	0,188	-0,050	1437,530	1368,665
-735,539	-81,346	-0,384	0,035	1437,530	1368,665
-734,525	36,647	0,193	0,128	1437,530	1368,665
-733,510	194,559	0,241	0,473	1437,530	1368,665
-732,496	9,973	-0,045	0,022	1437,530	1368,665
-731,481	59,156	-0,277	-0,228	1437,530	1368,665
-730,466	-79,926	0,231	0,022	1437,530	1368,665
-729,452	83,764	0,256	-0,259	1437,530	1368,665
-728,437	-53,408	0,143	-0,025	1437,530	1368,665
-727,423	800,000	-0,018	0,121	1437,530	1368,665
-726,408	74,346	-0,137	0,128	1437,530	1368,665
-725,394	146,773	-0,141	-0,216	1437,530	1368,665
-724,379	-200,000	-0,002	0,297	1437,530	1368,665
-723,364	-14,731	-0,149	-0,052	1437,530	1368,665
-722,350	216,919	0,056	-0,120	1437,530	1368,665
-721,335	-200,000	0,005	0,097	1437,530	1368,665
-720,321	128,707	0,119	0,164	1437,530	1368,665
-719,306	131,704	-0,126	0,178	1437,530	1368,665
-718,291	-123,678	-0,017	-0,000	1437,530	1368,665
-717,277	126,853	0,166	0,227	1437,530	1368,665
-716,262	34,326	0,232	-0,149	1437,530	1368,665
-715,248	362,924	-0,051	0,176	1437,530	1368,665
-714,233	-47,456	-0,261	-0,052	1437,530	1368,665
-713,218	254,976	-0,075	-0,187	1437,530	1368,665
-712,204	284,460	-0,026	-0,072	1437,530	1368,665
-711,189	610,253	-0,045	0,240	1437,530	1368,665
-710,175	800,000	-0,040	0,282	1437,530	1368,665
-709,160	150,199	-0,275	0,432	1437,530	1368,665
-708,145	247,391	-0,032	-0,078	1437,530	1368,665
-707,131	800,000	0,032	-0,260	1437,530	1368,665
-706,116	418,389	-0,045	0,176	1437,530	1368,665
-705,102	86,954	-0,217	-0,225	1437,530	1368,665
-704,087	210,135	0,120	-0,252	1437,530	1368,665
-703,072	-107,722	-0,391	-0,015	1437,530	1368,665
-702,058	149,744	0,170	-0,266	1437,530	1368,665
-701,043	140,594	0,149	-0,222	1437,530	1368,665
-700,029	47,384	0,018	-0,013	1437,530	1368,665
-699,014	423,794	0,036	0,141	1437,530	1368,665
-697,999	-27,645	0,185	0,053	1437,530	1368,665
-696,985	-200,000	-0,003	0,101	1437,530	1368,665
-695,970	-4,773	-0,391	-0,157	1437,530	1368,665
-694,956	2,570	0,435	-0,193	1437,530	1368,665
-693,941	567,374	0,035	0,177	1437,530	1368,665
-692,926	325,741	0,066	0,206	1437,530	1368,665
-691,912	800,000	-0,027	0,207	1437,530	1368,665
-690,897	-117,038	-0,142	-0,004	1437,530	1368,665
-689,883	94,142	0,123	-0,134	1437,530	1368,665
-688,868	30,067	0,110	-0,068	1437,530	1368,665
-687,854	-200,000	0,000	0,165	1437,530	1368,665
-686,839	-200,000	-0,006	-0,108	1437,530	1368,665
-685,824	24,312	-0,233	0,135	1437,530	1368,665
-684,810	-17,706	-0,213	0,071	1437,530	1368,665
-683,795	134,143	0,102	0,145	1437,530	1368,665
-682,781	624,380	0,004	-0,022	1437,530	1368,665
-681,766	11,824	0,148	-0,074	1437,530	1368,665
-680,751	113,305	0,070	-0,088	1437,530	1368,665
-679,737	800,000	-0,005	0,042	1437,530	1368,665
-678,722	105,477	0,178	0,211	1437,530	1368,665
-677,708	-49,065	-0,364	0,070	1437,530	1368,665
-676,693	43,829	0,280	-0,199	1437,530	1368,665
-675,678	67,053	-0,255	-0,225	1437,530	1368,665
-674,664	-41,609	0,072	0,016	1437,530	1368,665
-673,649	156,891	0,058	-0,095	1437,530	1368,665
-672,635	57,179	-0,134	0,109	1437,530	1368,665
-671,620	124,635	-0,189	0,255	1437,530	1368,665
-670,605	143,253	0,168	0,254	1437,530	1368,665
-669,591	-5,346	-0,183	0,073	1437,530	1368,665
-668,576	39,148	0,132	0,089	1437,530	1368,665
-667,562	65,254	-0,141	0,123	1437,530	1368,665
-666,547	-19,180	-0,147	-0,048	1437,530	1368,665
-665,532	653,344	-0,025	0,143	1437,530	1368,665
-664,518	75,115	-0,061	0,058	1437,530	1368,665
-663,503	52,560	-0,263	0,203	1437,530	1368,665
-662,489	191,320	-0,113	0,219	1437,530	1368,665
-661,474	33,950	0,122	0,079	1437,530	1368,665
-660,459	83,740	-0,104	0,105	1437,530	1368,665
-659,445	800,000	-0,026	0,244	1437,530	1368,665
-658,430	-13,094	0,129	-0,046	1437,530	1368,665
-657,416	800,000	-0,009	0,111	1437,530	1368,665
-656,401	391,841	-0,020	-0,074	1437,530	1368,665
-655,386	-31,628	-0,454	0,120	1437,530	1368,665
-654,372	-15,931	0,270	-0,092	1437,530	1368,665
-653,357	-73,757	-0,349	0,039	1437,530	1368,665
-652,343	435,454	0,038	-0,153	1437,530	1368,665
-651,328	223,883	0,194	0,431	1437,530	1368,665
-650,314	-200,000	-0,003	-0,067	1437,530	1368,665
-649,299	131,444	0,069	0,097	1437,530	1368,665
-648,284	-83,593	-0,320	-0,027	1437,530	1368,665
-647,270	425,145	0,031	0,124	1437,530	1368,665
-646,255	-98,977	0,086	0,005	1437,530	1368,665
-645,241	137,145	-0,139	-0,202	1437,530	1368,665
-644,226	116,856	-0,172	-0,221	1437,530	1368,665
-643,211	13,216	0,172	-0,087	1437,530	1368,665
-642,197	-115,965	-0,271	-0,008	1437,530	1368,665
-641,182	-17,334	0,127	-0,042	1437,530	1368,665
-640,168	118,102	-0,078	0,100	1437,530	1368,665
-639,153	-200,000	0,005	0,120	1437,530	1368,665
-638,138	271,771	-0,047	0,124	1437,530	1368,665
-637,124	-104,674	-0,182	0,008	1437,530	1368,665
-636,109	200,032	-0,075	-0,150	1437,530	1368,665
-635,095	-24,097	0,182	-0,055	1437,530	1368,665
-634,080	19,389	-0,119	0,065	1437,530	1368,665
-633,065	27,714	-0,365	-0,219	1437,530	1368,665
-632,051	52,429	-0,065	-0,050	1437,530	1368,665
-631,036	254,405	0,038	-0,096	1437,530	1368,665
-630,022	28,986	-0,171	0,104	1437,530	1368,665
-629,007	46,326	0,109	-0,080	1437,530	1368,665
-627,992	-31,129	0,169	0,045	1437,530	1368,665
-626,978	-1,862	-0,330	-0,138	1437,530	1368,665
-625,963	-49,931	-0,026	-0,005	1437,530	1368,665
-624,949	25,587	-0,179	0,105	1437,530	1368,665
-623,934	-55,979	0,259	-0,043	1437,530	1368,665
-622,919	-200,000	-0,003	-0,219	1437,530	1368,665
-621,905	580,371	0,042	-0,216	1437,530	1368,665
-620,890	62,958	-0,196	-0,166	1437,530	1368,665
-619,876	15,965	-0,088	0,046	1437,530	1368,665
-618,861	275,684	0,010	0,027	1437,530	1368,665
-617,846	-42,587	-0,294	0,064	1437,530	1368,665
-616,832	72,505	0,216	-0,200	1437,530	1368,665
-615,817	61,322	-0,415	-0,348	1437,530	1368,665
-614,803	76,563	-0,122	-0,116	1437,530	1368,665
-613,788	43,995	0,223	0,158	1437,530	1368,665
-612,773	380,141	-0,030	-0,109	1437,530	1368,665
-611,759	414,916	0,059	0,231	1437,530	1368,665
-610,744	170,648	0,169	0,296	1437,530	1368,665
-609,730	354,181	-0,079	0,267	1437,530	1368,665
-608,715	262,494	-0,121	0,310	1437,530	1368,665
-607,701	69,602	-0,080	-0,072	1437,530	1368,665
-606,686	104,982	0,111	-0,132	1437,530	1368,665
-605,671	29,822	0,119	-0,073	1437,530	1368,665
-604,657	-52,670	-0,176	-0,031	1437,530	1368,665
-603,642	123,492	-0,067	-0,089	1437,530	1368,665
-602,628	775,179	-0,044	-0,281	1437,530	1368,665
-601,613	-24,849	-0,228	-0,068	1437,530	1368,665
-600,598	-37,026	0,211	0,051	1437,530	1368,665
-599,584	-53,963	0,214	0,037	1437,530	1368,665
-598,569	162,978	-0,065	0,110	1437,530	1368,665
-597,555	69,579	0,220	-0,198	1437,530	1368,665
-596,540	-46,504	-0,304	0,061	1437,530	1368,665
-595,525	-200,000	0,010	0,192	1437,530	1368,665
-594,511	-200,000	0,003	0,250	1437,530	1368,665
-593,496	399,449	0,039	0,147	1437,530	1368,665
-592,482	65,416	0,141	-0,123	1437,530	1368,665
-591,467	128,807	-0,093	-0,128	1437,530	1368,665
-590,452	-28,553	0,209	-0,059	1437,530	1368,665
-589,438	-74,655	0,071	0,008	1437,530	1368,665
-588,423	122,935	-0,069	0,092	1437,530	1368,665
-587,409	-20,523	-0,062	0,020	1437,530	1368,665
-586,394	-1,022	-0,230	0,097	1437,530	1368,665
-585,379	800,000	-0,026	0,202	1437,530	1368,665
-584,365	800,000	0,044	-0,408	1437,530	1368,665
-583,350	71,018	-0,416	-0,379	1437,530	1368,665
-582,336	114,373	0,143	0,180	1437,530	1368,665
-581,321	43,259	-0,099	0,070	1437,530	1368,665
-580,306	185,797	-0,036	0,068	1437,530	1368,665
-579,292	12,810	0,028	0,014	1437,530	1368,665
-578,277	800,000	0,016	0,159	1437,530	1368,665
-577,263	94,657	-0,092	-0,102	1437,530	1368,665
-576,248	152,189	0,069	-0,109	1437,530	1368,665
-575,233	19,280	0,283	-0,154	1437,530	1368,665
-574,219	120,389	-0,056	0,073	1437,530	1368,665
-573,204	156,719	0,251	-0,408	1437,530	1368,665
-572,190	46,111	0,041	-0,030	1437,530	1368,665
-571,175	-5,357	-0,145	0,058	1437,530	1368,665
-570,161	-56,586	-0,285	-0,047	1437,530	1368,665
-569,146	166,256	0,057	0,098	1437,530	1368,665
-568,131	405,233	0,017	0,063	1437,530	1368,665
-567,117	26,898	-0,422	-0,251	1437,530	1368,665
-566,102	95,582	0,156	0,172	1437,530	1368,665
-565,088	179,723	0,105	-0,192	1437,530	1368,665
-564,073	82,811	-0,030	-0,030	1437,530	1368,665
-563,058	-18,361	-0,286	-0,094	1437,530	1368,665
-562,044	95,926	-0,105	-0,116	1437,530	1368,665
-561,029	141,272	0,026	0,039	1437,530	1368,665
-560,015	-3,008	0,027	-0,011	1437,530	1368,665
-559,000	-42,154	0,115	-0,025	1437,530	1368,665
-557,985	-24,047	-0,312	0,094	1437,530	1368,665
-556,971	-13,173	0,288	-0,103	1437,530	1368,665
-555,956	-59,367	-0,096	-0,015	1437,530	1368,665
-554,942	188,177	0,109	0,208	1437,530	1368,665
-553,927	767,684	0,014	0,091	1437,530	1368,665
-552,912	281,053	-0,144	-0,395	1437,530	1368,665
-551,898	282,666	-0,023	0,062	1437,530	1368,665
-550,883	171,697	-0,171	0,302	1437,530	1368,665
-549,869	33,672	0,178	0,114	1437,530	1368,665
-548,854	421,298	-0,070	-0,275	1437,530	1368,665
-547,839	-13,752	-0,139	-0,049	1437,530	1368,665
-546,825	92,338	-0,177	0,192	1437,530	1368,665
-545,810	88,106	-0,097	-0,101	1437,530	1368,665
-544,796	212,641	0,131	0,277	1437,530	1368,665
-543,781	-5,787	0,369	0,146	1437,530	1368,665
-542,766	800,000	-0,023	0,194	1437,530	1368,665
-541,752	74,322	-0,044	0,041	1437,530	1368,665
-540,737	-200,000	0,001	0,195	1437,530	1368,665
-539,723	407,504	0,016	0,061	1437,530	1368,665
-538,708	200,284	-0,062	0,125	1437,530	1368,665
-537,693	29,607	0,064	-0,039	1437,530	1368,665
-536,679	-200,000	0,003	0,162	1437,530	1368,665
-535,664	800,000	-0,014	-0,139	1437,530	1368,665
-534,650	-16,519	-0,297	-0,101	1437,530	1368,665
-533,635	-110,707	-0,214	0,008	1437,530	1368,665
-532,621	7,454	0,241	0,114	1437,530	1368,665
-531,606	-55,077	0,322	0,055	1437,530	1368,665
-530,591	236,202	-0,088	0,205	1437,530	1368,665
-529,577	68,292	-0,191	0,170	1437,530	1368,665
-528,562	11,249	-0,063	0,031	1437,530	1368,665
-527,548	57,572	-0,183	-0,148	1437,530	1368,665
-526,533	48,976	-0,225	-0,168	1437,530	1368,665
-525,518	56,314	0,326	0,261	1437,530	1368,665
-524,504	141,979	-0,167	-0,250	1437,530	1368,665
-523,489	32,947	-0,281	0,178	1437,530	1368,665
-522,475	-28,572	0,279	-0,078	1437,530	1368,665
-521,460	93,562	0,124	-0,135	1437,530	1368,665
-520,445	248,308	-0,142	-0,348	1437,530	1368,665
-519,431	4,539	-0,239	-0,109	1437,530	1368,665
-518,416	122,890	-0,096	-0,128	1437,530	1368,665
-517,402	73,612	0,131	-0,122	1437,530	1368,665
-516,387	800,000	-0,012	0,099	1437,530	1368,665
-515,372	-104,762	-0,656	0,029	1437,530	1368,665
-514,358	39,776	-0,114	0,078	1437,530	1368,665
-513,343	308,506	0,112	-0,333	1437,530	1368,665
-512,329	225,422	0,094	0,210	1437,530	1368,665
-511,314	49,533	-0,195	0,146	1437,530	1368,665
-510,299	59,444	-0,042	0,035	1437,530	1368,665
-509,285	-126,239	-0,129	0,002	1437,530	1368,665
-508,270	103,017	0,208	0,242	1437,530	1368,665
-507,256	6,407	-0,243	0,113	1437,530	1368,665
-506,241	190,797	-0,145	-0,279	1437,530	1368,665
-505,226	-10,380	0,237	-0,088	1437,530	1368,665
-504,212	508,013	0,034	-0,157	1437,530	1368,665
-503,197	800,000	-0,013	-0,203	1437,530	1368,665
-502,183	-22,281	0,192	0,060	1437,530	1368,665
-501,168	453,841	-0,073	-0,308	1437,530	1368,665
-500,153	-9,549	-0,267	-0,100	1437,530	1368,665
-499,139	367,602	0,014	0,050	1437,530	1368,665
-498,124	-101,066	-0,260	-0,013	1437,530	1368,665
-497,110	93,799	0,079	0,086	1437,530	1368,665
-496,095	-200,000	-0,010	-0,220	1437,530	1368,665
-495,081	121,825	0,150	-0,199	1437,530	1368,665
-494,066	723,379	0,075	-0,460	1437,530	1368,665
-493,051	-18,456	0,148	-0,049	1437,530	1368,665
-492,037	53,245	-0,091	-0,071	1437,530	1368,665
-491,022	-47,235	-0,132	-0,026	1437,530	1368,665
-490,008	105,583	-0,131	0,155	1437,530	1368,665
-488,993	-119,532	0,195	0,005	1437,530	1368,665
-487,978	-2,443	0,194	0,081	1437,530	1368,665
-486,964	187,082	0,139	0,263	1437,530	1368,665
-485,949	-0,450	0,072	-0,031	1437,530	1368,665
-484,935	104,123	-0,180	-0,211	1437,530	1368,665
-483,920	73,330	0,277	-0,258	1437,530	1368,665
-482,905	800,000	-0,022	0,286	1437,530	1368,665
-481,891	77,023	-0,215	0,206	1437,530	1368,665
-480,876	95,456	-0,265	-0,293	1437,530	1368,665
-479,862	261,679	0,054	0,140	1437,530	1368,665
-478,847	416,627	-0,026	-0,102	1437,530	1368,665
-477,832	148,976	-0,057	0,089	1437,530	1368,665
-476,818	-200,000	-0,011	0,286	1437,530	1368,665
-475,803	-112,342	-0,243	0,008	1437,530	1368,665
-474,789	31,310	0,208	0,130	1437,530	1368,665
-473,774	-23,627	-0,494	0,150	1437,530	1368,665
-472,759	210,435	-0,105	0,220	1437,530	1368,665
-471,745	72,867	0,356	0,329	1437,530	1368,665
-470,730	59,653	-0,209	-0,173	1437,530	1368,665
-469,716	193,642	-0,079	0,155	1437,530	1368,665
-468,701	320,359	-0,079	0,244	1437,530	1368,665
-467,686	-44,107	-0,356	0,076	1437,530	1368,665
-466,672	800,000	0,029	-0,271	1437,530	1368,665
-465,657	800,000	-0,013	0,102	1437,530	1368,665
-464,643	-73,475	0,247	-0,028	1437,530	1368,665
-463,628	35,483	0,242	0,158	1437,530	1368,665
-462,613	98,003	-0,107	-0,120	1437,530	1368,665
-461,599	106,071	-0,059	-0,070	1437,530	1368,665
-460,584	163,720	0,093	0,157	1437,530	1368,665
-459,570	155,839	-0,099	-0,160	1437,530	1368,665
-458,555	26,348	-0,396	-0,234	1437,530	1368,665
-457,540	64,324	-0,113	-0,097	1437,530	1368,665
-456,526	341,426	0,056	-0,183	1437,530	1368,665
-455,511	172,139	-0,135	0,238	1437,530	1368,665
-454,497	16,298	-0,074	-0,039	1437,530	1368,665
-453,482	43,067	0,217	0,153	1437,530	1368,665
-452,468	36,181	0,320	0,210	1437,530	1368,665
-451,453	21,969	0,175	0,099	1437,530	1368,665
-450,438	102,829	-0,274	-0,320	1437,530	1368,665
-449,424	800,000	-0,009	-0,089	1437,530	1368,665
-448,409	795,033	0,027	0,177	1437,530	1368,665
-447,395	6,100	0,197	0,091	1437,530	1368,665
-446,380	85,102	0,127	-0,129	1437,530	1368,665
-445,365	47,684	0,245	-0,181	1437,530	1368,665
-444,351	800,000	-0,033	-0,246	1437,530	1368,665
-443,336	368,970	-0,037	0,128	1437,530	1368,665
-442,322	137,586	-0,087	0,128	1437,530	1368,665
-441,307	97,172	-0,090	0,101	1437,530	1368,665
-440,292	156,766	0,055	0,090	1437,530	1368,665
-439,278	163,517	-0,060	-0,101	1437,530	1368,665
-438,263	98,248	-0,311	-0,350	1437,530	1368,665
-437,249	245,919	-0,049	-0,118	1437,530	1368,665
-436,234	143,916	0,041	0,062	1437,530	1368,665
-435,219	-27,297	0,183	0,052	1437,530	1368,665
-434,205	35,373	-0,072	0,047	1437,530	1368,665
-433,190	10,070	-0,354	0,173	1437,530	1368,665
-432,176	106,552	0,080	0,095	1437,530	1368,665
-431,161	84,843	-0,139	-0,142	1437,530	1368,665
-430,146	433,509	-0,044	-0,178	1437,530	1368,665
-429,132	550,563	-0,022	-0,106	1437,530	1368,665
-428,117	26,617	0,119	0,070	1437,530	1368,665
-427,103	413,179	-0,058	0,225	1437,530	1368,665
-426,088	63,994	-0,179	-0,153	1437,530	1368,665
-425,073	102,170	-0,294	0,341	1437,530	1368,665
-424,059	266,939	0,119	0,311	1437,530	1368,665
-423,044	65,028	-0,148	-0,128	1437,530	1368,665
-422,030	51,888	0,152	-0,117	1437,530	1368,665
-421,015	112,998	-0,061	0,077	1437,530	1368,665
-420,000	621,519	0,011	-0,061	1437,530	1368,665
-418,986	220,559	0,228	-0,500	1437,530	1368,665
-417,971	667,202	-0,017	-0,096	1437,530	1368,665
-416,957	225,472	0,097	-0,218	1437,530	1368,665
-415,942	-200,000	0,002	-0,127	1437,530	1368,665
-414,928	185,952	-0,066	-0,124	1437,530	1368,665
-413,913	32,182	0,033	0,021	1437,530	1368,665
-412,898	-17,998	0,109	-0,036	1437,530	1368,665
-411,884	211,901	0,076	-0,160	1437,530	1368,665
-410,869	-22,183	-0,183	-0,057	1437,530	1368,665
-409,855	-107,830	0,116	-0,005	1437,530	1368,665
-408,840	93,919	0,023	0,025	1437,530	1368,665
-407,825	76,137	-0,117	-0,111	1437,530	1368,665
-406,811	74,642	0,017	-0,016	1437,530	1368,665
-405,796	1,729	-0,372	0,163	1437,530	1368,665
-404,782	-77,426	0,196	0,020	1437,530	1368,665
-403,767	186,579	-0,078	0,148	1437,530	1368,665
-402,752	148,245	-0,124	-0,192	1437,530	1368,665
-401,738	31,020	-0,233	0,145	1437,530	1368,665
-400,723	14,964	0,154	0,080	1437,530	1368,665
-399,709	115,254	0,135	-0,171	1437,530	1368,665
-398,694	667,719	-0,072	-0,416	1437,530	1368,665
-397,679	727,404	0,042	0,259	1437,530	1368,665
-396,665	112,041	-0,009	0,011	1437,530	1368,665
-395,650	263,103	0,121	-0,313	1437,530	1368,665
-394,636	-37,306	0,225	0,054	1437,530	1368,665
-393,621	162,241	-0,093	0,156	1437,530	1368,665
-392,606	-18,115	-0,067	-0,022	1437,530	1368,665
-391,592	-51,503	0,064	-0,012	1437,530	1368,665
-390,577	87,706	0,295	0,307	1437,530	1368,665
-389,563	133,507	0,059	0,084	1437,530	1368,665
-388,548	91,434	0,239	-0,256	1437,530	1368,665
-387,533	233,185	0,076	-0,176	1437,530	1368,665
-386,519	-32,868	-0,087	0,023	1437,530	1368,665
-385,504	164,854	0,060	-0,102	1437,530	1368,665
-384,490	513,430	-0,045	0,208	1437,530	1368,665
-383,475	-20,648	0,114	-0,036	1437,530	1368,665
-382,460	-44,144	0,266	-0,056	1437,530	1368,665
-381,446	199,330	0,154	-0,309	1437,530	1368,665
-380,431	61,664	-0,124	0,105	1437,530	1368,665
-379,417	-52,135	-0,164	0,030	1437,530	1368,665
-378,402	-89,253	0,193	0,014	1437,530	1368,665
-377,388	-30,642	0,301	-0,081	1437,530	1368,665
-376,373	-51,388	-0,257	0,047	1437,530	1368,665
-375,358	11,877	0,475	-0,237	1437,530	1368,665
-374,344	36,556	0,365	0,241	1437,530	1368,665
-373,329	118,710	-0,178	0,231	1437,530	1368,665
-372,315	142,338	0,120	-0,180	1437,530	1368,665
-371,300	-80,269	-0,169	0,016	1437,530	1368,665
-370,285	589,398	0,024	0,124	1437,530	1368,665
-369,271	-50,889	-0,174	-0,032	1437,530	1368,665
-368,256	414,078	0,034	-0,130	1437,530	1368,665
-367,242	211,678	0,107	-0,226	1437,530	1368,665
-366,227	119,579	0,238	-0,311	1437,530	1368,665
-365,212	324,074	-0,011	-0,036	1437,530	1368,665
-364,198	-64,342	-0,273	-0,038	1437,530	1368,665
-363,183	202,499	0,063	-0,129	1437,530	1368,665
-362,169	441,728	-0,020	0,083	1437,530	1368,665
-361,154	18,396	0,259	-0,140	1437,530	1368,665
-360,139	-98,794	0,027	-0,001	1437,530	1368,665
-359,125	74,169	0,237	0,222	1437,530	1368,665
-358,110	-8,299	-0,099	-0,038	1437,530	1368,665
-357,096	277,273	0,048	-0,131	1437,530	1368,665
-356,081	203,443	0,027	0,055	1437,530	1368,665
-355,066	294,222	-0,072	-0,206	1437,530	1368,665
-354,052	-72,544	-0,051	0,006	1437,530	1368,665
-353,037	-148,787	0,390	0,002	1437,530	1368,665
-352,023	65,257	-0,240	0,208	1437,530	1368,665
-351,008	22,650	0,188	-0,107	1437,530	1368,665
-349,993	319,396	0,150	-0,461	1437,530	1368,665
-348,979	576,327	-0,039	0,200	1437,530	1368,665
-347,964	51,616	-0,254	-0,195	1437,530	1368,665
-346,950	443,560	0,028	0,114	1437,530	1368,665
-345,935	-200,000	-0,011	-0,312	1437,530	1368,665
-344,920	-9,740	-0,310	-0,116	1437,530	1368,665
-343,906	535,659	0,026	-0,125	1437,530	1368,665
-342,891	99,857	0,140	0,159	1437,530	1368,665
-341,877	-14,266	-0,104	0,037	1437,530	1368,665
-340,862	100,577	0,095	-0,109	1437,530	1368,665
-339,848	374,439	-0,036	-0,128	1437,530	1368,665
-338,833	-30,634	0,232	-0,063	1437,530	1368,665
-337,818	315,984	0,056	0,172	1437,530	1368,665
-336,804	520,884	-0,069	0,324	1437,530	1368,665
-335,789	136,076	0,127	0,184	1437,530	1368,665
-334,775	169,747	0,088	-0,154	1437,530	1368,665
-333,760	178,504	-0,131	0,239	1437,530	1368,665
-332,745	-50,884	0,272	-0,050	1437,530	1368,665
-331,731	-44,984	-0,117	0,024	1437,530	1368,665
-330,716	74,814	0,127	0,120	1437,530	1368,665
-329,702	-200,000	-0,005	-0,121	1437,530	1368,665
-328,687	13,666	0,083	0,042	1437,530	1368,665
-327,672	-200,000	0,019	-0,376	1437,530	1368,665
-326,658	26,927	-0,206	0,122	1437,530	1368,665
-325,643	162,604	0,054	-0,091	1437,530	1368,665
-324,629	-42,495	-0,145	0,032	1437,530	1368,665
-323,614	76,270	0,189	0,180	1437,530	1368,665
-322,599	-9,590	0,103	0,039	1437,530	1368,665
-321,585	-59,207	0,420	-0,065	1437,530	1368,665
-320,570	800,000	0,034	0,251	1437,530	1368,665
-319,556	-18,018	-0,124	-0,041	1437,530	1368,665
-318,541	138,163	0,282	-0,413	1437,530	1368,665
-317,526	208,342	0,140	0,293	1437,530	1368,665
-316,512	511,618	-0,082	0,379	1437,530	1368,665
-315,497	-22,601	-0,393	0,121	1437,530	1368,665
-314,483	78,960	-0,153	-0,149	1437,530	1368,665
-313,468	-77,572	0,164	-0,016	1437,530	1368,665
-312,453	59,180	-0,240	0,197	1437,530	1368,665
-311,439	190,333	0,029	-0,056	1437,530	1368,665
-310,424	88,525	0,039	0,041	1437,530	1368,665
-309,410	410,750	0,042	-0,163	1437,530	1368,665
-308,395	0,645	-0,200	-0,086	1437,530	1368,665
-307,380	-30,641	0,143	0,038	1437,530	1368,665
-306,366	8,322	0,133	0,064	1437,530	1368,665
-305,351	58,648	0,169	-0,138	1437,530	1368,665
-304,337	-37,836	0,034	-0,008	1437,530	1368,665
-303,322	69,512	0,203	-0,183	1437,530	1368,665
-302,307	131,552	-0,030	0,042	1437,530	1368,665
-301,293	174,501	-0,221	-0,395	1437,530	1368,665
-300,278	218,057	0,037	0,081	1437,530	1368,665
-299,264	248,500	-0,108	-0,264	1437,530	1368,665
-298,249	256,281	-0,067	-0,169	1437,530	1368,665
-297,235	800,000	0,015	-0,105	1437,530	1368,665
-296,220	-91,530	0,270	-0,018	1437,530	1368,665
-295,205	248,039	-0,059	0,144	1437,530	1368,665
-294,191	-39,734	-0,205	-0,047	1437,530	1368,665
-293,176	221,062	-0,036	0,079	1437,530	1368,665
-292,162	64,056	0,376	0,322	1437,530	1368,665
-291,147	91,266	0,209	0,224	1437,530	1368,665
-290,132	75,175	0,247	-0,233	1437,530	1368,665
-289,118	182,508	0,090	0,167	1437,530	1368,665
-288,103	-121,034	0,028	0,001	1437,530	1368,665
-287,089	-200,000	0,009	-0,160	1437,530	1368,665
-286,074	181,240	-0,031	0,058	1437,530	1368,665
-285,059	-76,017	0,407	-0,043	1437,530	1368,665
-284,045	333,297	-0,055	-0,175	1437,530	1368,665
-283,030	270,851	-0,139	0,367	1437,530	1368,665
-282,016	149,378	0,178	0,278	1437,530	1368,665
-281,001	-17,047	0,128	-0,043	1437,530	1368,665
-279,986	80,581	-0,138	0,136	1437,530	1368,665
-278,972	59,735	0,276	-0,228	1437,530	1368,665
-277,957	113,277	-0,132	0,165	1437,530	1368,665
-276,943	-51,948	-0,285	-0,052	1437,530	1368,665
-275,928	109,826	0,315	-0,385	1437,530	1368,665
-274,913	-126,930	-0,234	0,004	1437,530	1368,665
-273,899	57,467	0,268	0,217	1437,530	1368,665
-272,884	297,152	0,051	-0,146	1437,530	1368,665
-271,870	107,176	0,173	0,207	1437,530	1368,665
-270,855	268,517	0,075	0,198	1437,530	1368,665
-269,840	-55,075	0,128	-0,022	1437,530	1368,665
-268,826	-42,165	0,185	0,041	1437,530	1368,665
-267,811	-25,484	-0,339	-0,100	1437,530	1368,665
-266,797	-1,015	0,265	-0,112	1437,530	1368,665
-265,782	800,000	-0,014	0,148	1437,530	1368,665
-264,767	73,579	-0,217	0,203	1437,530	1368,665
-263,753	95,712	0,157	0,174	1437,530	1368,665
-262,738	-0,751	0,187	0,079	1437,530	1368,665
-261,724	-98,912	-0,244	-0,013	1437,530	1368,665
-260,709	195,559	-0,123	0,242	1437,530	1368,665
-259,695	14,331	-0,249	0,128	1437,530	1368,665
-258,680	688,736	0,022	-0,130	1437,530	1368,665
-257,665	169,806	-0,089	0,154	1437,530	1368,665
-256,651	-12,981	0,349	-0,125	1437,530	1368,665
-255,636	179,327	-0,155	0,283	1437,530	1368,665
-254,622	157,089	0,025	0,041	1437,530	1368,665
-253,607	175,879	-0,130	0,234	1437,530	1368,665
-252,592	37,152	0,348	0,231	1437,530	1368,665
-251,578	69,457	0,242	0,218	1437,530	1368,665
-250,563	342,902	-0,004	0,012	1437,530	1368,665
-249,549	-3,959	0,123	-0,050	1427,990	1368,645
-248,534	-15,882	0,158	-0,050	1212,807	1255,764
-247,519	-9,540	0,233	-0,116	-0,466	-0,335
-246,505	-67,120	0,119	-0,063	-0,277	-0,065
-245,490	299,424	-0,213	0,173	-0,277	0,939
-244,476	287,198	0,099	-0,041	0,357	2,282
-243,461	246,979	0,047	-0,114	0,752	0,715
-242,446	800,000	-0,017	-0,148	5,800	4,974
-241,432	30,407	0,172	0,110	30,827	28,307
-240,417	21,805	0,073	0,041	218,423	209,554
-239,403	338,935	0,070	-0,223	1006,860	982,415
-238,388	373,399	-0,043	-0,173	1613,770	1358,759
-237,373	124,984	0,109	0,197	1164,306	829,259
-236,359	701,427	-0,028	-0,228	824,462	585,944
-235,344	800,000	0,031	-0,454	823,567	584,548
-234,330	158,654	0,065	-0,144	823,953	585,056
-233,315	-8,199	-0,213	-0,109	824,179	585,076
-232,300	61,709	0,033	0,037	824,901	585,281
-231,286	-75,355	0,110	-0,016	825,167	585,773
-230,271	40,667	-0,156	0,144	825,483	586,155
-229,257	800,000	0,009	0,115	825,945	586,431
-228,242	26,519	-0,230	0,183	826,805	586,839
-227,227	-50,972	-0,171	0,043	827,527	586,967
-226,213	175,967	0,045	-0,108	827,910	587,739
-225,198	-16,870	-0,254	0,115	828,134	588,152
-224,184	3,127	-0,097	0,058	828,722	588,678
-223,169	-200,000	0,006	-0,140	828,825	588,810
-222,155	199,193	0,032	0,086	829,167	588,817
-221,140	52,327	-0,225	-0,233	829,573	589,547
-220,125	67,097	0,138	-0,163	830,428	589,922
-219,111	-54,342	0,074	0,017	831,304	590,088
-218,096	-28,324	0,125	0,047	831,177	590,477
-217,082	262,998	0,058	0,202	831,631	590,755
-216,067	-42,200	-0,096	0,028	832,111	591,505
-215,052	-42,250	-0,182	-0,054	832,447	591,953
-214,038	800,000	-0,007	-0,139	833,171	592,487
-213,023	9,265	-0,104	-0,067	833,926	592,882
-212,009	711,534	-0,039	-0,313	834,304	593,121
-210,994	-16,854	-0,151	0,068	834,650	593,459
-209,979	107,555	0,116	-0,187	835,602	594,057
-208,965	-143,613	0,182	0,002	835,567	594,417
-207,950	800,000	0,013	0,189	835,992	594,903
-206,936	-108,609	0,312	-0,016	836,471	594,939
-205,921	326,202	0,055	0,230	837,347	595,222
-204,906	12,536	0,380	-0,256	837,623	596,013
-203,892	-51,561	-0,064	0,016	838,197	596,499
-202,877	-14,750	-0,115	0,053	838,881	596,778
-201,863	-28,611	0,168	-0,063	839,197	597,499
-200,848	-50,581	0,122	-0,030	839,786	597,972
-199,833	-25,881	-0,182	-0,071	840,013	597,921
-198,819	170,702	0,030	0,070	840,704	598,410
-197,804	-78,973	0,524	0,068	841,047	598,714
-196,790	188,786	-0,042	-0,106	841,684	599,050
-195,775	20,083	0,151	0,112	842,032	598,947
-194,760	-47,052	0,209	0,056	842,268	599,966
-193,746	52,092	-0,159	-0,163	843,176	600,576
-192,731	147,016	-0,072	0,149	843,724	600,929
-191,717	74,139	-0,173	0,217	844,483	601,024
-190,702	63,228	-0,074	0,084	844,770	601,836
-189,687	209,714	0,100	0,282	845,266	602,106
-188,673	-116,304	-0,345	-0,013	846,021	603,327
-187,658	73,607	-0,178	0,222	850,046	605,487
-186,644	26,333	0,233	-0,184	872,127	622,605
-185,629	61,965	-0,068	0,077	934,235	667,572
-184,614	99,672	-0,060	-0,094	986,802	682,133
-183,600	-61,375	0,598	0,124	989,603	672,099
-182,585	332,880	0,019	-0,084	988,679	670,093
-181,571	-56,150	-0,259	0,060	989,509	670,452
-180,556	226,129	0,056	-0,175	989,820	671,037
-179,542	-88,740	-0,379	-0,039	990,238	671,237
-178,527	-124,928	-0,086	-0,002	990,927	671,844
-177,512	-47,229	-0,217	0,061	993,422	673,777
-176,498	25,012	0,004	-0,003	1001,489	679,807
-175,483	656,297	0,030	0,236	1019,765	693,571
-174,469	37,632	-0,253	0,237	1036,238	703,658
-173,454	-50,858	0,177	0,046	1039,926	705,224
-172,439	-5,024	-0,139	0,078	1040,785	705,319
-171,425	-73,299	0,192	0,030	1041,315	705,569
-170,410	45,842	-0,076	-0,078	1041,338	705,771
-169,396	77,469	0,184	0,249	1042,060	706,492
-168,381	45,340	0,079	-0,080	1042,958	707,134
-167,366	-68,244	0,179	0,032	1043,547	708,925
-166,352	461,882	-0,060	0,356	1044,499	710,523
-165,337	17,270	-0,084	0,063	1044,069	707,764
-164,323	34,822	0,170	0,155	1044,116	705,376
-163,308	153,253	-0,045	-0,101	1044,698	706,881
-162,293	85,294	0,098	0,141	1045,090	707,453
-161,279	-200,000	-0,000	0,175	1046,012	708,844
-160,264	800,000	-0,020	0,257	1046,782	710,204
-159,250	206,758	0,058	-0,168	1047,351	710,139
-158,235	102,341	-0,170	-0,277	1048,151	711,585
-157,220	232,732	0,095	0,307	1049,563	713,924
-156,206	-200,000	-0,006	0,257	1051,320	719,811
-155,191	-69,509	-0,115	0,020	1054,136	728,907
-154,177	-49,801	0,058	0,015	1056,745	736,194
-153,162	532,928	-0,045	0,291	1058,462	741,469
-152,147	800,000	-0,027	0,300	1060,102	746,097
-151,133	240,276	-0,110	0,351	1061,858	750,538
-150,118	288,531	-0,075	-0,283	1063,111	753,725
-149,104	127,912	0,028	0,052	1064,046	756,073
-148,089	446,866	-0,029	0,163	1065,245	756,504
-147,074	-65,682	-0,034	-0,006	1065,730	757,131
-146,060	-30,917	-0,460	0,166	1065,937	757,719
-145,045	107,697	0,121	-0,196	1067,247	758,099
-144,031	45,864	0,084	-0,081	1067,377	758,994
-143,016	30,378	0,104	0,086	1067,971	759,110
-142,002	3,823	0,201	0,121	1068,751	760,246
-140,987	66,967	-0,126	-0,148	1069,427	760,082
-139,972	3,374	-0,363	-0,218	1069,673	760,000
-138,958	72,261	0,137	0,169	1070,372	759,976
-137,943	25,453	0,067	-0,053	1071,270	760,632
-136,929	28,327	-0,182	-0,148	1071,741	761,202
-135,914	63,108	-0,104	-0,119	1072,004	761,296
-134,899	-66,661	-0,331	0,058	1072,382	761,025
-133,885	121,998	-0,107	0,190	1073,066	761,941
-132,870	6,814	-0,181	0,113	1074,196	764,386
-131,856	120,988	0,122	-0,214	1075,596	766,597
-130,841	-42,286	-0,208	0,061	1075,622	766,019
-129,826	-200,000	0,002	-0,171	1077,093	767,559
-128,812	616,965	-0,032	-0,232	1078,130	768,778
-127,797	104,908	-0,068	-0,107	1079,141	768,539
-126,783	-19,221	-0,053	0,023	1079,822	769,156
-125,768	8,461	0,262	0,168	1079,869	769,028
-124,753	52,597	-0,097	-0,101	1080,472	768,373
-123,739	-50,935	-0,336	0,083	1081,117	768,616
-122,724	-31,889	0,409	0,145	1081,433	769,151
-121,710	-93,851	-0,211	-0,018	1081,987	770,459
-120,695	26,500	-0,331	-0,263	1083,364	771,158
-119,680	-72,567	-0,340	0,052	1083,620	771,381
-118,666	-143,311	0,257	0,003	1084,334	772,082
-117,651	-49,423	-0,296	-0,075	1084,495	773,496
-116,637	276,639	0,071	0,256	1085,819	775,239
-115,622	9,942	-0,170	-0,111	1086,909	775,945
-114,607	403,373	-0,014	0,071	1086,632	775,430
-113,593	25,456	0,162	0,127	1087,202	775,261
-112,578	800,000	0,029	-0,392	1088,272	776,249
-111,564	-60,261	-0,392	-0,080	1088,650	777,415
-110,549	-55,829	-0,144	0,032	1089,891	778,308
-109,534	48,812	-0,129	-0,129	1090,188	777,413
-108,520	-79,325	-0,107	-0,014	1089,718	776,028
-107,505	181,709	-0,080	-0,197	1090,648	773,558
-106,491	-69,943	0,160	0,026	1089,969	769,798
-105,476	141,835	0,026	-0,053	1089,442	765,594
-104,462	81,712	-0,069	0,094	1088,034	761,535
-103,447	144,760	-0,032	0,066	1087,042	754,610
-102,432	106,133	-0,089	0,147	1085,403	746,139
-101,418	41,202	-0,191	0,184	1084,636	741,408
-100,403	-77,780	0,401	0,056	1084,933	740,525
-99,389	325,792	-0,010	-0,042	1084,947	740,857
-98,374	800,000	-0,002	0,045	1086,386	741,469
-97,359	800,000	0,015	-0,264	1086,650	741,227
-96,345	38,881	-0,140	-0,133	1087,226	741,020
-95,330	-95,582	0,390	-0,033	1087,985	741,805
-94,316	800,000	-0,006	-0,056	1088,527	741,944
-93,301	119,009	-0,092	-0,166	1090,371	745,638
-92,286	91,406	0,049	-0,072	1091,033	749,348
-91,272	316,431	0,060	-0,254	1091,738	747,477
-90,257	65,337	-0,070	0,084	1091,934	746,363
-89,243	-123,738	0,078	0,002	1092,437	746,735
-88,228	91,191	-0,088	-0,131	1092,869	747,957
-87,213	23,316	0,143	0,113	1093,642	748,308
-86,199	713,517	0,005	0,039	1094,386	749,127
-85,184	-65,496	0,158	-0,030	1094,979	750,046
-84,170	11,374	0,071	0,049	1097,240	752,170
-83,155	33,777	-0,081	-0,072	1100,846	754,553
-82,140	31,901	-0,119	-0,104	1104,920	756,418
-81,126	800,000	-0,032	0,302	1105,682	756,835
-80,111	-62,932	-0,361	0,072	1106,454	757,465
-79,097	96,884	0,102	0,158	1106,976	758,113
-78,082	275,193	0,035	-0,130	1107,614	758,243
-77,067	-93,770	0,122	0,011	1108,661	758,515
-76,053	154,011	-0,009	-0,020	1109,210	759,732
-75,038	195,010	-0,074	-0,201	1110,060	762,106
-74,024	247,768	-0,012	-0,042	1110,219	761,224
-73,009	8,052	0,035	-0,023	1109,777	757,702
-71,994	-65,976	0,160	-0,030	1111,096	759,401
-70,980	-50,791	-0,438	0,112	1113,052	767,303
-69,965	-89,831	-0,246	-0,024	1120,313	794,056
-68,951	-14,621	-0,423	-0,190	1132,343	837,949
-67,936	151,963	0,083	-0,167	1136,639	848,508
-66,922	21,087	-0,427	0,313	1129,115	817,150
-65,907	119,576	0,054	0,095	1124,506	800,256
-64,892	-42,049	0,129	-0,038	1125,653	801,772
-63,878	800,000	-0,006	-0,108	1126,572	804,745
-62,863	76,693	0,195	-0,247	1127,860	807,469
-61,849	186,497	-0,439	-1,101	1128,207	809,353
-60,834	631,355	-0,260	1,897	1129,782	811,177
-59,819	439,602	0,338	-1,830	1130,653	812,416
-58,805	16,782	-1,816	-1,274	1131,159	813,287
-57,790	313,753	0,611	-2,448	1131,285	814,126
-56,776	167,580	3,419	7,795	1131,987	814,054
-55,761	800,000	111,710	1254,079	1132,726	814,408
-54,746	141,725	1717,734	3399,666	1132,857	814,880
-53,732	55,722	3233,994	3410,139	1133,090	814,951
-52,717	48,754	3257,110	3218,792	1133,560	814,562
-51,703	28,633	2879,170	2314,630	1134,007	814,462
-50,688	22,332	2542,966	1906,265	1135,015	814,647
-49,673	19,604	2417,370	1756,754	1135,484	814,590
-48,659	19,963	2390,206	1744,011	1136,188	815,225
-47,644	21,363	2382,518	1766,671	1137,021	815,886
-46,630	19,041	2371,491	1712,402	1137,661	816,020
-45,615	18,806	2365,927	1704,427	1138,674	816,395
-44,600	18,899	2362,775	1701,676	1138,687	817,522
-43,586	18,954	2358,865	1698,567	1139,645	818,878
-42,571	18,948	2356,136	1695,994	1140,814	819,958
-41,557	19,011	2353,857	1694,394	1141,754	821,220
-40,542	19,024	2351,506	1692,356	1142,302	821,900
-39,527	19,051	2348,486	1690,617	1143,080	822,510
-38,513	19,076	2346,013	1688,139	1143,495	823,390
-37,498	19,091	2343,283	1686,472	1143,799	823,609
-36,484	19,086	2341,453	1684,916	1144,774	824,378
-35,469	18,993	2339,130	1683,777	1145,710	823,896
-34,454	18,981	2337,395	1681,865	1145,863	824,212
-33,440	18,926	2334,461	1680,956	1146,553	823,587
-32,425	18,776	2332,171	1679,457	1146,681	822,161
-31,411	18,629	2330,285	1677,480	1146,281	820,760
-30,396	18,408	2328,157	1675,901	1147,225	819,331
-29,381	18,705	2326,060	1674,726	1148,436	822,901
-28,367	20,463	2324,278	1672,762	1153,383	843,901
-27,352	22,220	2322,814	1671,333	1160,234	866,465
-26,338	20,508	2321,035	1670,262	1157,126	847,168
-25,323	16,836	2318,556	1668,401	1146,556	804,071
-24,309	15,065	2316,792	1666,558	1140,629	783,424
-23,294	14,903	2315,799	1666,149	1140,163	781,441
-22,279	14,971	2313,722	1664,625	1141,122	782,747
-21,265	15,294	2312,106	1663,413	1142,683	786,895
-20,250	15,354	2310,315	1662,262	1143,550	787,988
-19,236	15,208	2307,529	1660,679	1143,844	786,618
-18,221	15,146	2306,731	1659,497	1144,889	787,038
-17,206	15,200	2305,155	1658,203	1145,066	787,739
-16,192	15,218	2302,694	1656,590	1145,711	788,281
-15,177	15,200	2300,977	1655,269	1146,805	788,901
-14,163	15,124	2300,393	1653,558	1147,947	789,589
-13,148	15,151	2298,602	1652,397	1153,796	793,801
-12,133	15,097	2297,428	1651,187	1184,257	814,419
-11,119	14,625	2296,124	1650,567	1241,141	848,531
-10,104	14,148	2293,544	1648,955	1276,545	867,593
-9,090	14,056	2292,640	1647,851	1287,082	874,021
-8,075	14,054	2290,515	1646,343	1296,664	880,492
-7,060	13,932	2290,028	1645,097	1305,225	885,482
-6,046	13,964	2287,600	1643,944	1314,459	891,772
-5,031	14,057	2285,872	1642,917	1324,983	899,804
-4,017	14,922	2284,801	1641,088	1357,439	932,132
-3,002	19,593	2282,882	1640,634	1528,502	1108,693
-1,987	22,595	2281,615	1639,868	1976,392	1483,964
-0,973	19,174	2279,284	1637,678	2361,797	1705,148
0,042	18,258	2264,016	1629,762	2426,112	1729,603
1,056	18,672	2152,822	1558,317	2429,839	1731,104
2,071	16,328	2010,107	1414,351	2431,539	1733,395
3,086	13,985	1951,819	1335,040	2433,037	1734,668
4,100	13,527	1942,787	1321,372	2434,416	1735,819
5,115	13,481	1938,690	1317,672	2436,206	1737,337
6,129	13,433	1935,137	1314,781	2438,234	1738,388
7,144	13,449	1931,999	1312,635	2439,781	1739,846
8,159	13,443	1929,073	1310,152	2441,329	1741,495
9,173	13,469	1925,046	1308,011	2443,453	1742,756
10,188	13,767	1893,977	1292,085	2445,587	1743,589
11,202	14,169	1816,914	1245,277	2446,842	1744,878
12,217	14,142	1762,494	1207,650	2449,378	1746,603
13,231	14,096	1751,493	1198,743	2450,362	1748,316
14,246	14,083	1749,471	1197,142	2451,554	1749,211
15,261	14,081	1747,485	1195,628	2453,853	1751,028
16,275	14,006	1747,045	1194,573	2455,593	1751,790
17,290	13,999	1745,750	1193,537	2457,570	1753,284
18,304	13,990	1744,765	1192,530	2459,572	1755,004
19,319	14,129	1744,631	1194,054	2461,109	1756,668
20,334	14,344	1744,432	1197,032	2462,988	1758,018
21,348	14,076	1741,466	1191,186	2464,123	1758,733
22,363	13,722	1738,234	1184,489	2466,875	1759,797
23,377	13,818	1737,837	1184,767	2468,182	1761,961
24,392	13,812	1736,698	1183,831	2470,521	1763,751
25,407	13,908	1735,426	1184,329	2472,084	1764,873
26,421	13,954	1734,722	1184,681	2474,309	1766,222
27,436	13,951	1733,487	1183,456	2476,007	1767,931
28,450	13,944	1732,548	1182,839	2478,221	1769,334
29,465	14,060	1732,585	1184,050	2480,041	1771,345
30,480	14,512	1733,099	1191,034	2482,232	1772,706
31,494	15,211	1735,462	1203,096	2484,678	1773,909
32,509	15,970	1737,566	1215,262	2486,673	1775,772
33,523	16,407	1738,806	1222,316	2489,077	1777,755
34,538	16,791	1739,504	1228,822	2491,528	1778,887
35,553	17,142	1739,956	1234,538	2494,223	1780,441
36,567	17,467	1740,289	1239,095	2496,644	1782,796
37,582	17,606	1740,361	1240,882	2499,072	1784,979
38,596	17,663	1739,087	1241,016	2502,194	1786,895
39,611	17,756	1737,961	1241,319	2504,272	1788,751
40,626	17,737	1736,571	1239,706	2507,656	1791,658
41,640	17,785	1735,972	1240,184	2510,833	1793,647
42,655	17,730	1734,909	1238,334	2514,079	1796,369
43,669	17,770	1733,215	1236,758	2517,365	1800,101
44,684	17,816	1732,634	1236,746	2521,935	1803,758
45,699	18,156	1731,384	1235,369	2526,394	1814,924
46,713	20,008	1729,974	1233,497	2536,000	1863,032
47,728	18,615	1729,024	1232,103	2545,446	1840,865
48,742	18,627	1727,865	1231,369	2584,875	1869,504
49,757	21,496	1726,310	1230,420	2739,407	2048,166
50,771	28,730	1725,046	1228,616	3037,569	2465,145
51,786	47,925	1724,071	1226,879	3290,205	3257,138
52,801	59,247	1722,753	1225,150	3101,303	3415,618
53,815	147,144	1722,953	1226,788	1563,440	3224,543
54,830	800,000	1722,410	1229,626	97,182	1116,399
55,844	177,768	1720,758	1227,777	2,993	7,238
56,859	800,000	1718,617	1227,923	0,229	-2,626
57,874	61,526	1717,102	1227,086	-1,157	-1,294
58,888	800,000	1714,740	1223,697	-0,108	-1,558
59,903	296,436	1713,111	1223,005	-0,406	1,556
60,917	198,976	1712,377	1221,381	-0,322	-0,859
61,932	-35,559	1710,337	1218,803	-0,164	0,054
62,947	-53,333	1709,291	1217,142	0,295	0,070
63,961	-136,973	1707,558	1214,812	-0,246	-0,004
64,976	98,613	1707,181	1215,401	0,076	-0,115
65,990	-4,796	1705,690	1215,583	0,142	0,076
67,005	-3,400	1704,860	1213,550	0,165	0,090
68,020	20,737	1703,462	1212,222	-0,089	0,066
69,034	800,000	1702,912	1213,015	-0,026	0,294
70,049	229,626	1702,397	1213,615	0,068	0,207
71,063	20,565	1701,517	1213,475	-0,028	-0,020
72,078	-72,922	1699,397	1211,310	-0,362	0,055
73,093	-75,188	1698,131	1208,838	0,184	-0,026
74,107	169,667	1697,774	1208,369	-0,021	0,050
75,122	303,494	1696,934	1208,678	0,059	-0,234
76,136	110,531	1696,098	1208,840	0,051	-0,084
77,151	-53,630	1694,802	1206,821	0,098	-0,023
78,166	-10,980	1693,184	1203,782	0,155	-0,076
79,180	-64,161	1691,772	1198,004	0,090	-0,017
80,195	-65,583	1688,809	1191,435	-0,189	-0,034
81,209	-100,405	1685,499	1183,746	0,278	0,019
82,224	-22,489	1682,858	1175,679	0,334	-0,141
83,239	298,600	1679,215	1164,930	-0,119	0,475
84,253	-36,924	1674,277	1150,140	0,031	0,010
85,268	85,621	1671,037	1140,092	-0,111	0,159
86,282	13,013	1669,369	1135,691	-0,073	-0,052
87,297	163,150	1668,013	1133,449	0,089	0,210
88,312	-82,435	1666,561	1133,538	-0,023	-0,003
89,326	-11,540	1665,939	1131,233	-0,206	0,105
90,341	21,394	1664,357	1129,739	0,332	0,260
91,355	-58,902	1663,461	1128,847	0,221	0,049
92,370	-20,946	1662,265	1126,627	-0,098	-0,044
93,384	19,497	1662,379	1129,471	-0,175	-0,134
94,399	-70,116	1662,714	1134,854	0,283	0,048
95,414	349,603	1660,994	1132,121	0,069	0,320
96,428	-121,844	1659,209	1128,975	0,212	0,007
97,443	16,417	1657,995	1127,966	0,187	-0,138
98,457	-28,708	1657,224	1126,979	-0,257	-0,100
99,472	-78,446	1656,953	1126,278	-0,136	0,019
100,487	121,607	1655,704	1125,811	-0,058	-0,107
101,501	-78,040	1655,181	1124,734	-0,215	0,030
102,516	124,651	1654,295	1125,287	0,024	0,045
103,530	193,602	1651,789	1124,229	0,042	0,116
104,545	68,484	1649,741	1121,684	-0,060	0,075
105,560	55,419	1647,394	1119,840	0,136	0,151
106,574	-73,103	1646,550	1119,189	0,372	0,059
107,589	39,053	1645,459	1117,700	0,069	-0,065
108,603	16,470	1644,425	1117,191	0,081	-0,060
109,618	31,240	1643,212	1116,354	-0,097	-0,085
110,633	-8,956	1642,424	1115,883	0,210	-0,111
111,647	9,891	1642,571	1118,919	0,089	-0,060
112,662	112,159	1640,994	1117,247	-0,086	0,149
113,676	53,269	1638,291	1109,769	-0,042	0,046
114,691	114,794	1637,059	1107,345	0,124	-0,220
115,706	-7,796	1637,280	1111,030	0,259	0,140
116,720	-66,450	1644,847	1136,455	-0,092	-0,017
117,735	211,344	1661,605	1203,549	-0,135	-0,374
118,749	800,000	1665,671	1235,143	0,015	-0,152
119,764	53,760	1654,346	1194,846	-0,096	0,099
120,779	13,864	1645,905	1162,493	0,145	0,100
121,793	22,609	1644,507	1158,788	0,056	0,043
122,808	749,544	1643,921	1160,774	-0,004	-0,037
123,822	47,118	1643,418	1162,608	-0,264	-0,261
124,837	-200,000	1642,812	1164,163	-0,014	-0,363
125,852	163,080	1642,313	1164,978	0,035	-0,080
126,866	-55,603	1641,685	1165,791	0,139	0,031
127,881	289,763	1640,610	1165,615	-0,038	-0,145
128,895	46,231	1639,372	1164,888	-0,156	0,152
129,910	497,562	1637,744	1164,176	0,013	-0,082
130,924	-12,066	1636,706	1162,193	-0,192	-0,093
131,939	377,189	1635,667	1161,512	-0,039	0,186
132,954	-44,946	1634,247	1160,326	0,121	0,034
133,968	67,040	1632,516	1157,951	0,252	-0,299
134,983	800,000	1631,231	1155,235	-0,003	0,036
135,997	323,235	1629,905	1154,471	0,037	-0,155
137,012	-44,394	1628,863	1153,588	0,175	-0,049
138,027	235,440	1627,316	1151,879	-0,036	0,112
139,041	34,265	1625,333	1150,320	-0,259	0,225
140,056	132,224	1623,346	1148,197	-0,104	0,198
141,070	-85,029	1621,815	1147,583	-0,292	-0,032
142,085	55,114	1620,101	1146,956	0,324	0,345
143,100	163,603	1619,505	1147,066	-0,060	-0,137
144,114	800,000	1619,394	1146,647	-0,023	0,235
145,129	-113,666	1618,606	1147,527	-0,192	0,008
146,143	69,414	1617,234	1147,277	-0,079	0,095
147,158	31,857	1615,325	1146,610	-0,080	0,067
148,173	-200,000	1614,856	1145,552	0,001	-0,167
149,187	800,000	1614,012	1145,202	0,010	-0,092
150,202	-81,767	1612,736	1143,674	-0,452	0,055
151,216	457,844	1611,728	1142,891	0,039	0,219
152,231	-55,408	1610,913	1140,871	0,231	0,052
153,246	-128,797	1609,036	1138,518	-0,109	-0,002
154,260	800,000	1607,538	1136,084	-0,022	-0,319
155,275	-7,238	1605,701	1131,502	-0,085	0,044
156,289	2,050	1604,067	1127,120	0,201	-0,120
157,304	785,969	1602,175	1124,350	0,026	0,232
158,319	-45,615	1607,343	1146,276	0,295	-0,081
159,333	-200,000	1616,337	1183,952	-0,002	0,106
160,348	747,072	1610,351	1171,867	-0,025	-0,202
161,362	77,472	1593,740	1113,552	-0,055	0,072
162,377	-25,396	1584,644	1075,794	0,193	-0,080
163,392	-200,000	1581,130	1065,581	-0,000	-0,208
164,406	160,319	1579,761	1063,909	0,114	-0,268
165,421	75,463	1579,981	1068,663	-0,052	0,070
166,435	-110,670	1579,382	1069,896	-0,282	-0,014
167,450	230,097	1578,859	1066,439	-0,052	0,167
168,464	-12,261	1577,202	1065,177	0,185	-0,094
169,479	12,388	1575,929	1064,327	0,076	-0,054
170,494	79,328	1575,094	1063,593	0,182	-0,251
171,508	36,095	1573,740	1062,630	-0,189	0,175
172,523	28,197	1572,736	1062,485	0,065	-0,056
173,537	12,222	1554,775	1054,512	-0,134	-0,094
174,552	137,155	1440,177	987,949	0,118	-0,238
175,567	-175,105	1309,673	897,121	0,013	-0,000
176,581	13,859	1263,078	859,163	0,274	0,196
177,596	164,824	1255,545	854,454	0,094	0,224
178,610	366,938	1253,879	853,445	-0,030	0,144
179,625	35,905	1252,832	852,356	0,163	-0,150
180,640	-46,821	1251,762	851,519	0,201	0,056
181,654	-81,363	1251,868	851,705	-0,114	-0,014
182,669	54,909	1250,980	852,972	0,114	-0,126
183,683	127,186	1249,010	873,231	-0,078	0,146
184,698	-11,919	1096,647	812,141	0,290	-0,135
185,713	42,082	899,297	655,546	0,140	-0,128
186,727	35,954	831,286	593,501	-0,158	0,138
187,742	-38,284	821,860	587,753	-0,124	-0,039
188,756	-73,261	819,794	586,135	0,311	-0,046
189,771	14,634	818,592	585,948	0,336	0,231
190,786	-18,799	818,140	585,025	-0,135	0,059
191,800	703,279	817,432	584,740	-0,023	-0,186
192,815	-13,303	817,062	584,668	0,165	-0,078
193,829	271,480	816,332	584,265	0,047	-0,168
194,844	-17,504	816,319	583,063	-0,330	-0,147
195,859	-87,408	815,536	582,902	-0,094	0,010
196,873	-83,650	814,878	582,666	-0,191	0,022
197,888	-44,321	814,656	581,795	0,455	0,128
198,902	44,068	814,320	581,713	-0,150	0,143
199,917	-44,642	813,437	581,443	-0,101	0,028
200,932	69,778	812,774	580,393	-0,129	0,156
201,946	-200,000	811,854	580,535	0,004	0,186
202,961	-42,306	812,220	580,238	-0,085	0,025
203,975	72,620	811,631	579,746	-0,079	-0,098
204,990	-65,274	811,213	579,146	0,162	0,029
206,004	-15,046	810,558	578,754	0,149	0,069
207,019	54,259	810,124	578,530	-0,162	0,169
208,034	142,444	809,405	578,309	0,059	-0,118
209,048	47,545	809,073	577,444	0,195	0,192
210,063	229,943	808,519	576,948	-0,077	0,235
211,077	-33,243	807,818	576,694	-0,162	-0,056
212,092	222,088	807,294	576,045	-0,066	0,194
213,107	233,985	807,242	576,054	-0,037	0,114
214,121	-37,097	806,479	575,500	-0,271	0,087
215,136	-200,000	806,282	575,412	0,013	-0,352
216,150	-47,233	805,872	574,754	0,289	0,077
217,165	71,569	804,710	574,715	0,132	-0,161
218,180	134,841	804,838	574,690	-0,078	0,150
219,194	49,855	804,284	573,483	-0,210	0,211
220,209	27,008	803,638	573,124	-0,193	-0,154
221,223	88,575	802,945	572,761	0,107	0,150
222,238	-95,007	803,005	572,522	0,117	0,009
223,253	800,000	802,769	572,256	-0,004	-0,063
224,267	269,653	802,112	571,969	-0,056	-0,196
225,282	-28,419	801,746	571,462	-0,332	0,124
226,296	-108,880	800,765	571,064	0,266	0,013
227,311	-21,304	800,298	570,822	0,185	-0,077
228,326	178,566	799,841	570,686	-0,050	-0,122
229,340	-59,553	799,602	570,750	-0,180	0,037
230,355	-98,824	799,414	569,658	0,035	0,002
231,369	800,000	798,549	569,102	-0,019	-0,248
232,384	-88,125	797,974	569,283	-0,356	-0,036
233,399	800,000	797,920	568,697	0,010	0,202
234,413	76,598	797,232	568,312	0,281	0,358
235,428	293,259	801,172	570,731	-0,102	0,390
236,442	800,000	1168,822	844,592	-0,007	-0,136
237,457	-8,724	1600,196	1397,212	-0,048	0,020
238,472	160,711	905,981	923,597	-0,082	-0,127
239,486	214,419	144,703	137,125	0,029	0,062
240,501	-99,842	18,371	17,296	0,215	0,011
241,515	302,269	3,700	3,761	-0,064	0,175
242,530	-200,000	0,018	-0,071	0,043	0,253
243,545	-200,000	0,038	2,689	-0,099	-0,166
244,559	409,675	-0,566	1,338	-0,011	-0,017
245,574	-21,936	-0,676	-0,671	-0,231	-0,069
246,588	54,841	-0,609	-0,880	-0,393	-0,204
247,603	-38,078	1320,278	1361,979	-0,239	-0,052
248,617	171,681	1436,011	1362,211	-0,038	-0,068
